
  1   1001     1.54056     0.00000     0.00000     0.00000     0.00000    0
     0     0     0
 2Theta	Yobs	Ycal	Yobs-Ycal	Backg	Posr	(hkl)	K
     -5.0000	 19.3962	 19.3962	 -4.8491	  0.0000
     -4.9900	 16.5075	 16.5074	 -4.8490	  0.0000
     -4.9800	 15.4220	 15.4219	 -4.8490	  0.0000
     -4.9700	 14.7349	 14.7349	 -4.8490	  0.0000
     -4.9600	 14.2297	 14.2296	 -4.8490	  0.0000
     -4.9500	 13.8302	 13.8302	 -4.8490	  0.0000
     -4.9400	 13.5005	 13.5004	 -4.8490	  0.0000
     -4.9300	 13.2203	 13.2202	 -4.8490	  0.0000
     -4.9200	 12.9773	 12.9772	 -4.8490	  0.0000
     -4.9100	 12.7632	 12.7632	 -4.8490	  0.0000
     -4.9000	 12.5725	 12.5724	 -4.8490	  0.0000
     -4.8900	 12.4009	 12.4008	 -4.8490	  0.0000
     -4.8800	 12.2453	 12.2452	 -4.8490	  0.0000
     -4.8700	 12.1034	 12.1034	 -4.8490	  0.0000
     -4.8600	 11.9733	 11.9733	 -4.8490	  0.0000
     -4.8500	 11.8535	 11.8535	 -4.8490	  0.0000
     -4.8400	 11.7428	 11.7428	 -4.8490	  0.0000
     -4.8300	 11.6402	 11.6401	 -4.8490	  0.0000
     -4.8200	 11.5448	 11.5447	 -4.8490	  0.0000
     -4.8100	 11.4559	 11.4558	 -4.8490	  0.0000
     -4.8000	 11.3729	 11.3728	 -4.8490	  0.0000
     -4.7900	 11.2953	 11.2952	 -4.8490	  0.0000
     -4.7800	 11.2226	 11.2225	 -4.8490	  0.0000
     -4.7700	 11.1544	 11.1544	 -4.8490	  0.0000
     -4.7600	 11.0904	 11.0904	 -4.8490	  0.0000
     -4.7500	 11.0303	 11.0302	 -4.8490	  0.0000
     -4.7400	 10.9737	 10.9737	 -4.8490	  0.0000
     -4.7300	 10.9205	 10.9204	 -4.8490	  0.0000
     -4.7200	 10.8704	 10.8703	 -4.8490	  0.0000
     -4.7100	 10.8231	 10.8231	 -4.8490	  0.0000
     -4.7000	 10.7786	 10.7786	 -4.8490	  0.0000
     -4.6900	 10.7367	 10.7366	 -4.8490	  0.0000
     -4.6800	 10.6971	 10.6971	 -4.8490	  0.0000
     -4.6700	 10.6599	 10.6598	 -4.8490	  0.0000
     -4.6600	 10.6247	 10.6246	 -4.8490	  0.0000
     -4.6500	 10.5915	 10.5915	 -4.8490	  0.0000
     -4.6400	 10.5603	 10.5603	 -4.8490	  0.0000
     -4.6300	 10.5309	 10.5308	 -4.8490	  0.0000
     -4.6200	 10.5031	 10.5031	 -4.8490	  0.0000
     -4.6100	 10.4770	 10.4770	 -4.8490	  0.0000
     -4.6000	 10.4525	 10.4525	 -4.8490	  0.0000
     -4.5900	 10.4294	 10.4294	 -4.8490	  0.0000
     -4.5800	 10.4077	 10.4077	 -4.8490	  0.0000
     -4.5700	 10.3874	 10.3873	 -4.8490	  0.0000
     -4.5600	 10.3683	 10.3683	 -4.8490	  0.0000
     -4.5500	 10.3504	 10.3504	 -4.8490	  0.0000
     -4.5400	 10.3337	 10.3337	 -4.8490	  0.0000
     -4.5300	 10.3181	 10.3181	 -4.8490	  0.0000
     -4.5200	 10.3036	 10.3036	 -4.8490	  0.0000
     -4.5100	 10.2901	 10.2901	 -4.8490	  0.0000
     -4.5000	 10.2776	 10.2775	 -4.8490	  0.0000
     -4.4900	 10.2660	 10.2660	 -4.8490	  0.0000
     -4.4800	 10.2553	 10.2553	 -4.8490	  0.0000
     -4.4700	 10.2455	 10.2455	 -4.8490	  0.0000
     -4.4600	 10.2365	 10.2365	 -4.8490	  0.0000
     -4.4500	 10.2283	 10.2283	 -4.8490	  0.0000
     -4.4400	 10.2210	 10.2209	 -4.8490	  0.0000
     -4.4300	 10.2143	 10.2143	 -4.8490	  0.0000
     -4.4200	 10.2084	 10.2084	 -4.8490	  0.0000
     -4.4100	 10.2032	 10.2032	 -4.8490	  0.0000
     -4.4000	 10.1987	 10.1986	 -4.8490	  0.0000
     -4.3900	 10.1948	 10.1948	 -4.8490	  0.0000
     -4.3800	 10.1916	 10.1915	 -4.8490	  0.0000
     -4.3700	 10.1889	 10.1889	 -4.8490	  0.0000
     -4.3600	 10.1869	 10.1869	 -4.8490	  0.0000
     -4.3500	 10.1855	 10.1854	 -4.8490	  0.0000
     -4.3400	 10.1846	 10.1846	 -4.8490	  0.0000
     -4.3300	 10.1842	 10.1842	 -4.8490	  0.0000
     -4.3200	 10.1845	 10.1844	 -4.8490	  0.0000
     -4.3100	 10.1852	 10.1852	 -4.8490	  0.0000
     -4.3000	 10.1864	 10.1864	 -4.8490	  0.0000
     -4.2900	 10.1882	 10.1882	 -4.8490	  0.0000
     -4.2800	 10.1904	 10.1904	 -4.8490	  0.0000
     -4.2700	 10.1931	 10.1931	 -4.8490	  0.0000
     -4.2600	 10.1962	 10.1962	 -4.8490	  0.0000
     -4.2500	 10.1999	 10.1998	 -4.8490	  0.0000
     -4.2400	 10.2039	 10.2039	 -4.8490	  0.0000
     -4.2300	 10.2084	 10.2084	 -4.8491	  0.0000
     -4.2200	 10.2133	 10.2133	 -4.8491	  0.0000
     -4.2100	 10.2187	 10.2187	 -4.8491	  0.0000
     -4.2000	 10.2244	 10.2244	 -4.8490	  0.0000
     -4.1900	 10.2306	 10.2306	 -4.8490	  0.0000
     -4.1800	 10.2371	 10.2371	 -4.8491	  0.0000
     -4.1700	 10.2441	 10.2441	 -4.8490	  0.0000
     -4.1600	 10.2514	 10.2514	 -4.8490	  0.0000
     -4.1500	 10.2591	 10.2591	 -4.8491	  0.0000
     -4.1400	 10.2673	 10.2672	 -4.8491	  0.0000
     -4.1300	 10.2757	 10.2757	 -4.8491	  0.0000
     -4.1200	 10.2846	 10.2846	 -4.8491	  0.0000
     -4.1100	 10.2938	 10.2938	 -4.8490	  0.0000
     -4.1000	 10.3033	 10.3033	 -4.8491	  0.0000
     -4.0900	 10.3132	 10.3132	 -4.8491	  0.0000
     -4.0800	 10.3235	 10.3235	 -4.8491	  0.0000
     -4.0700	 10.3342	 10.3341	 -4.8491	  0.0000
     -4.0600	 10.3451	 10.3451	 -4.8491	  0.0000
     -4.0500	 10.3564	 10.3564	 -4.8491	  0.0000
     -4.0400	 10.3681	 10.3681	 -4.8491	  0.0000
     -4.0300	 10.3801	 10.3801	 -4.8491	  0.0000
     -4.0200	 10.3924	 10.3924	 -4.8491	  0.0000
     -4.0100	 10.4051	 10.4051	 -4.8491	  0.0000
     -4.0000	 10.4181	 10.4181	 -4.8491	  0.0000
     -3.9900	 10.4315	 10.4315	 -4.8491	  0.0000
     -3.9800	 10.4451	 10.4451	 -4.8491	  0.0000
     -3.9700	 10.4592	 10.4591	 -4.8491	  0.0000
     -3.9600	 10.4735	 10.4735	 -4.8491	  0.0000
     -3.9500	 10.4882	 10.4882	 -4.8491	  0.0000
     -3.9400	 10.5031	 10.5032	 -4.8491	  0.0000
     -3.9300	 10.5185	 10.5185	 -4.8491	  0.0000
     -3.9200	 10.5341	 10.5341	 -4.8491	  0.0000
     -3.9100	 10.5501	 10.5501	 -4.8491	  0.0000
     -3.9000	 10.5664	 10.5664	 -4.8491	  0.0000
     -3.8900	 10.5831	 10.5831	 -4.8491	  0.0000
     -3.8800	 10.6000	 10.6000	 -4.8491	  0.0000
     -3.8700	 10.6173	 10.6173	 -4.8491	  0.0000
     -3.8600	 10.6349	 10.6349	 -4.8491	  0.0000
     -3.8500	 10.6529	 10.6529	 -4.8491	  0.0000
     -3.8400	 10.6712	 10.6712	 -4.8491	  0.0000
     -3.8300	 10.6898	 10.6898	 -4.8491	  0.0000
     -3.8200	 10.7087	 10.7087	 -4.8491	  0.0000
     -3.8100	 10.7280	 10.7280	 -4.8491	  0.0000
     -3.8000	 10.7476	 10.7476	 -4.8491	  0.0000
     -3.7900	 10.7675	 10.7675	 -4.8491	  0.0000
     -3.7800	 10.7878	 10.7878	 -4.8491	  0.0000
     -3.7700	 10.8084	 10.8084	 -4.8491	  0.0000
     -3.7600	 10.8293	 10.8293	 -4.8491	  0.0000
     -3.7500	 10.8506	 10.8506	 -4.8491	  0.0000
     -3.7400	 10.8722	 10.8722	 -4.8491	  0.0000
     -3.7300	 10.8941	 10.8941	 -4.8491	  0.0000
     -3.7200	 10.9164	 10.9164	 -4.8491	  0.0000
     -3.7100	 10.9390	 10.9390	 -4.8491	  0.0000
     -3.7000	 10.9619	 10.9619	 -4.8491	  0.0000
     -3.6900	 10.9852	 10.9852	 -4.8491	  0.0000
     -3.6800	 11.0088	 11.0088	 -4.8491	  0.0000
     -3.6700	 11.0327	 11.0327	 -4.8491	  0.0000
     -3.6600	 11.0570	 11.0570	 -4.8491	  0.0000
     -3.6500	 11.0816	 11.0816	 -4.8491	  0.0000
     -3.6400	 11.1065	 11.1065	 -4.8491	  0.0000
     -3.6300	 11.1318	 11.1318	 -4.8491	  0.0000
     -3.6200	 11.1574	 11.1574	 -4.8491	  0.0000
     -3.6100	 11.1833	 11.1833	 -4.8491	  0.0000
     -3.6000	 11.2095	 11.2095	 -4.8491	  0.0000
     -3.5900	 11.2360	 11.2360	 -4.8491	  0.0000
     -3.5800	 11.2629	 11.2629	 -4.8491	  0.0000
     -3.5700	 11.2900	 11.2900	 -4.8491	  0.0000
     -3.5600	 11.3174	 11.3174	 -4.8491	  0.0000
     -3.5500	 11.3452	 11.3452	 -4.8491	  0.0000
     -3.5400	 11.3732	 11.3732	 -4.8491	  0.0000
     -3.5300	 11.4014	 11.4014	 -4.8491	  0.0000
     -3.5200	 11.4300	 11.4300	 -4.8491	  0.0000
     -3.5100	 11.4587	 11.4587	 -4.8491	  0.0000
     -3.5000	 11.4878	 11.4878	 -4.8491	  0.0000
     -3.4900	 11.5170	 11.5170	 -4.8491	  0.0000
     -3.4800	 11.5464	 11.5464	 -4.8491	  0.0000
     -3.4700	 11.5760	 11.5760	 -4.8491	  0.0000
     -3.4600	 11.6057	 11.6057	 -4.8491	  0.0000
     -3.4500	 11.6356	 11.6356	 -4.8491	  0.0000
     -3.4400	 11.6656	 11.6656	 -4.8491	  0.0000
     -3.4300	 11.6956	 11.6956	 -4.8491	  0.0000
     -3.4200	 11.7257	 11.7257	 -4.8491	  0.0000
     -3.4100	 11.7558	 11.7558	 -4.8491	  0.0000
     -3.4000	 11.7859	 11.7859	 -4.8491	  0.0000
     -3.3900	 11.8159	 11.8159	 -4.8491	  0.0000
     -3.3800	 11.8458	 11.8458	 -4.8491	  0.0000
     -3.3700	 11.8755	 11.8755	 -4.8491	  0.0000
     -3.3600	 11.9050	 11.9050	 -4.8491	  0.0000
     -3.3500	 11.9342	 11.9342	 -4.8491	  0.0000
     -3.3400	 11.9630	 11.9630	 -4.8491	  0.0000
     -3.3300	 11.9915	 11.9915	 -4.8491	  0.0000
     -3.3200	 12.0194	 12.0194	 -4.8491	  0.0000
     -3.3100	 12.0468	 12.0468	 -4.8491	  0.0000
     -3.3000	 12.0736	 12.0736	 -4.8491	  0.0000
     -3.2900	 12.0996	 12.0996	 -4.8491	  0.0000
     -3.2800	 12.1249	 12.1249	 -4.8491	  0.0000
     -3.2700	 12.1492	 12.1492	 -4.8491	  0.0000
     -3.2600	 12.1726	 12.1726	 -4.8491	  0.0000
     -3.2500	 12.1949	 12.1949	 -4.8491	  0.0000
     -3.2400	 12.2160	 12.2161	 -4.8491	  0.0000
     -3.2300	 12.2359	 12.2359	 -4.8491	  0.0000
     -3.2200	 12.2544	 12.2544	 -4.8491	  0.0000
     -3.2100	 12.2715	 12.2715	 -4.8491	  0.0000
     -3.2000	 12.2871	 12.2871	 -4.8491	  0.0000
     -3.1900	 12.3010	 12.3010	 -4.8491	  0.0000
     -3.1800	 12.3132	 12.3132	 -4.8491	  0.0000
     -3.1700	 12.3237	 12.3237	 -4.8491	  0.0000
     -3.1600	 12.3324	 12.3324	 -4.8491	  0.0000
     -3.1500	 12.3392	 12.3392	 -4.8491	  0.0000
     -3.1400	 12.3440	 12.3440	 -4.8491	  0.0000
     -3.1300	 12.3470	 12.3470	 -4.8491	  0.0000
     -3.1200	 12.3479	 12.3479	 -4.8491	  0.0000
     -3.1100	 12.3469	 12.3469	 -4.8491	  0.0000
     -3.1000	 12.3439	 12.3439	 -4.8491	  0.0000
     -3.0900	 12.3390	 12.3390	 -4.8491	  0.0000
     -3.0800	 12.3321	 12.3321	 -4.8491	  0.0000
     -3.0700	 12.3234	 12.3234	 -4.8491	  0.0000
     -3.0600	 12.3128	 12.3128	 -4.8491	  0.0000
     -3.0500	 12.3004	 12.3004	 -4.8491	  0.0000
     -3.0400	 12.2864	 12.2864	 -4.8491	  0.0000
     -3.0300	 12.2706	 12.2706	 -4.8491	  0.0000
     -3.0200	 12.2534	 12.2534	 -4.8491	  0.0000
     -3.0100	 12.2346	 12.2346	 -4.8491	  0.0000
     -3.0000	 12.2145	 12.2145	 -4.8491	  0.0000
     -2.9900	 12.1931	 12.1931	 -4.8491	  0.0000
     -2.9800	 12.1705	 12.1705	 -4.8491	  0.0000
     -2.9700	 12.1468	 12.1468	 -4.8491	  0.0000
     -2.9600	 12.1221	 12.1221	 -4.8491	  0.0000
     -2.9500	 12.0965	 12.0965	 -4.8491	  0.0000
     -2.9400	 12.0700	 12.0700	 -4.8491	  0.0000
     -2.9300	 12.0428	 12.0428	 -4.8491	  0.0000
     -2.9200	 12.0149	 12.0149	 -4.8491	  0.0000
     -2.9100	 11.9865	 11.9865	 -4.8491	  0.0000
     -2.9000	 11.9575	 11.9575	 -4.8491	  0.0000
     -2.8900	 11.9280	 11.9280	 -4.8491	  0.0000
     -2.8800	 11.8982	 11.8982	 -4.8491	  0.0000
     -2.8700	 11.8681	 11.8681	 -4.8491	  0.0000
     -2.8600	 11.8377	 11.8377	 -4.8491	  0.0000
     -2.8500	 11.8072	 11.8072	 -4.8491	  0.0000
     -2.8400	 11.7764	 11.7764	 -4.8491	  0.0000
     -2.8300	 11.7456	 11.7456	 -4.8491	  0.0000
     -2.8200	 11.7147	 11.7147	 -4.8491	  0.0000
     -2.8100	 11.6837	 11.6837	 -4.8491	  0.0000
     -2.8000	 11.6528	 11.6528	 -4.8491	  0.0000
     -2.7900	 11.6219	 11.6219	 -4.8491	  0.0000
     -2.7800	 11.5911	 11.5911	 -4.8491	  0.0000
     -2.7700	 11.5604	 11.5604	 -4.8491	  0.0000
     -2.7600	 11.5298	 11.5298	 -4.8491	  0.0000
     -2.7500	 11.4993	 11.4993	 -4.8491	  0.0000
     -2.7400	 11.4690	 11.4690	 -4.8491	  0.0000
     -2.7300	 11.4389	 11.4389	 -4.8491	  0.0000
     -2.7200	 11.4090	 11.4090	 -4.8491	  0.0000
     -2.7100	 11.3793	 11.3793	 -4.8491	  0.0000
     -2.7000	 11.3498	 11.3498	 -4.8491	  0.0000
     -2.6900	 11.3205	 11.3205	 -4.8491	  0.0000
     -2.6800	 11.2914	 11.2914	 -4.8491	  0.0000
     -2.6700	 11.2626	 11.2627	 -4.8491	  0.0000
     -2.6600	 11.2341	 11.2341	 -4.8491	  0.0000
     -2.6500	 11.2058	 11.2058	 -4.8491	  0.0000
     -2.6400	 11.1778	 11.1778	 -4.8491	  0.0000
     -2.6300	 11.1501	 11.1501	 -4.8491	  0.0000
     -2.6200	 11.1226	 11.1226	 -4.8491	  0.0000
     -2.6100	 11.0954	 11.0954	 -4.8491	  0.0000
     -2.6000	 11.0684	 11.0684	 -4.8491	  0.0000
     -2.5900	 11.0418	 11.0418	 -4.8491	  0.0000
     -2.5800	 11.0154	 11.0154	 -4.8491	  0.0000
     -2.5700	 10.9893	 10.9893	 -4.8491	  0.0000
     -2.5600	 10.9635	 10.9635	 -4.8491	  0.0000
     -2.5500	 10.9379	 10.9379	 -4.8491	  0.0000
     -2.5400	 10.9126	 10.9126	 -4.8491	  0.0000
     -2.5300	 10.8876	 10.8876	 -4.8491	  0.0000
     -2.5200	 10.8629	 10.8629	 -4.8491	  0.0000
     -2.5100	 10.8384	 10.8384	 -4.8491	  0.0000
     -2.5000	 10.8142	 10.8142	 -4.8491	  0.0000
     -2.4900	 10.7903	 10.7903	 -4.8491	  0.0000
     -2.4800	 10.7667	 10.7667	 -4.8491	  0.0000
     -2.4700	 10.7433	 10.7433	 -4.8491	  0.0000
     -2.4600	 10.7202	 10.7202	 -4.8491	  0.0000
     -2.4500	 10.6973	 10.6973	 -4.8491	  0.0000
     -2.4400	 10.6747	 10.6747	 -4.8491	  0.0000
     -2.4300	 10.6523	 10.6523	 -4.8491	  0.0000
     -2.4200	 10.6302	 10.6302	 -4.8491	  0.0000
     -2.4100	 10.6084	 10.6084	 -4.8491	  0.0000
     -2.4000	 10.5868	 10.5868	 -4.8491	  0.0000
     -2.3900	 10.5654	 10.5654	 -4.8491	  0.0000
     -2.3800	 10.5443	 10.5443	 -4.8491	  0.0000
     -2.3700	 10.5234	 10.5234	 -4.8491	  0.0000
     -2.3600	 10.5028	 10.5028	 -4.8491	  0.0000
     -2.3500	 10.4824	 10.4824	 -4.8491	  0.0000
     -2.3400	 10.4622	 10.4622	 -4.8491	  0.0000
     -2.3300	 10.4422	 10.4422	 -4.8491	  0.0000
     -2.3200	 10.4225	 10.4225	 -4.8491	  0.0000
     -2.3100	 10.4030	 10.4030	 -4.8491	  0.0000
     -2.3000	 10.3837	 10.3837	 -4.8491	  0.0000
     -2.2900	 10.3647	 10.3647	 -4.8491	  0.0000
     -2.2800	 10.3458	 10.3458	 -4.8491	  0.0000
     -2.2700	 10.3272	 10.3272	 -4.8491	  0.0000
     -2.2600	 10.3087	 10.3087	 -4.8491	  0.0000
     -2.2500	 10.2905	 10.2905	 -4.8491	  0.0000
     -2.2400	 10.2725	 10.2725	 -4.8491	  0.0000
     -2.2300	 10.2547	 10.2547	 -4.8491	  0.0000
     -2.2200	 10.2371	 10.2371	 -4.8491	  0.0000
     -2.2100	 10.2197	 10.2197	 -4.8491	  0.0000
     -2.2000	 10.2024	 10.2024	 -4.8491	  0.0000
     -2.1900	 10.1854	 10.1854	 -4.8491	  0.0000
     -2.1800	 10.1686	 10.1686	 -4.8491	  0.0000
     -2.1700	 10.1519	 10.1519	 -4.8491	  0.0000
     -2.1600	 10.1355	 10.1355	 -4.8491	  0.0000
     -2.1500	 10.1192	 10.1192	 -4.8491	  0.0000
     -2.1400	 10.1031	 10.1031	 -4.8491	  0.0000
     -2.1300	 10.0872	 10.0872	 -4.8491	  0.0000
     -2.1200	 10.0714	 10.0714	 -4.8491	  0.0000
     -2.1100	 10.0559	 10.0559	 -4.8491	  0.0000
     -2.1000	 10.0405	 10.0405	 -4.8491	  0.0000
     -2.0900	 10.0253	 10.0253	 -4.8491	  0.0000
     -2.0800	 10.0102	 10.0102	 -4.8491	  0.0000
     -2.0700	  9.9953	  9.9953	 -4.8491	  0.0000
     -2.0600	  9.9806	  9.9806	 -4.8491	  0.0000
     -2.0500	  9.9661	  9.9661	 -4.8491	  0.0000
     -2.0400	  9.9517	  9.9517	 -4.8491	  0.0000
     -2.0300	  9.9375	  9.9375	 -4.8491	  0.0000
     -2.0200	  9.9235	  9.9235	 -4.8491	  0.0000
     -2.0100	  9.9096	  9.9096	 -4.8491	  0.0000
     -2.0000	  9.8958	  9.8958	 -4.8491	  0.0000
     -1.9900	  9.8822	  9.8822	 -4.8491	  0.0000
     -1.9800	  9.8688	  9.8688	 -4.8491	  0.0000
     -1.9700	  9.8556	  9.8556	 -4.8491	  0.0000
     -1.9600	  9.8424	  9.8424	 -4.8491	  0.0000
     -1.9500	  9.8295	  9.8295	 -4.8491	  0.0000
     -1.9400	  9.8167	  9.8167	 -4.8491	  0.0000
     -1.9300	  9.8040	  9.8040	 -4.8491	  0.0000
     -1.9200	  9.7915	  9.7915	 -4.8491	  0.0000
     -1.9100	  9.7791	  9.7791	 -4.8491	  0.0000
     -1.9000	  9.7669	  9.7669	 -4.8491	  0.0000
     -1.8900	  9.7549	  9.7549	 -4.8491	  0.0000
     -1.8800	  9.7429	  9.7429	 -4.8491	  0.0000
     -1.8700	  9.7312	  9.7312	 -4.8491	  0.0000
     -1.8600	  9.7195	  9.7195	 -4.8491	  0.0000
     -1.8500	  9.7080	  9.7080	 -4.8491	  0.0000
     -1.8400	  9.6967	  9.6967	 -4.8491	  0.0000
     -1.8300	  9.6855	  9.6855	 -4.8491	  0.0000
     -1.8200	  9.6744	  9.6744	 -4.8491	  0.0000
     -1.8100	  9.6635	  9.6635	 -4.8491	  0.0000
     -1.8000	  9.6527	  9.6527	 -4.8491	  0.0000
     -1.7900	  9.6421	  9.6421	 -4.8491	  0.0000
     -1.7800	  9.6316	  9.6316	 -4.8491	  0.0000
     -1.7700	  9.6213	  9.6213	 -4.8491	  0.0000
     -1.7600	  9.6111	  9.6111	 -4.8491	  0.0000
     -1.7500	  9.6010	  9.6010	 -4.8491	  0.0000
     -1.7400	  9.5911	  9.5911	 -4.8491	  0.0000
     -1.7300	  9.5813	  9.5813	 -4.8491	  0.0000
     -1.7200	  9.5717	  9.5717	 -4.8491	  0.0000
     -1.7100	  9.5622	  9.5622	 -4.8491	  0.0000
     -1.7000	  9.5528	  9.5528	 -4.8491	  0.0000
     -1.6900	  9.5436	  9.5436	 -4.8491	  0.0000
     -1.6800	  9.5346	  9.5346	 -4.8491	  0.0000
     -1.6700	  9.5257	  9.5257	 -4.8491	  0.0000
     -1.6600	  9.5169	  9.5169	 -4.8491	  0.0000
     -1.6500	  9.5083	  9.5083	 -4.8491	  0.0000
     -1.6400	  9.4998	  9.4998	 -4.8491	  0.0000
     -1.6300	  9.4915	  9.4915	 -4.8491	  0.0000
     -1.6200	  9.4834	  9.4834	 -4.8491	  0.0000
     -1.6100	  9.4754	  9.4754	 -4.8491	  0.0000
     -1.6000	  9.4676	  9.4676	 -4.8491	  0.0000
     -1.5900	  9.4599	  9.4599	 -4.8491	  0.0000
     -1.5800	  9.4524	  9.4524	 -4.8491	  0.0000
     -1.5700	  9.4451	  9.4451	 -4.8491	  0.0000
     -1.5600	  9.4379	  9.4379	 -4.8491	  0.0000
     -1.5500	  9.4309	  9.4309	 -4.8491	  0.0000
     -1.5400	  9.4241	  9.4241	 -4.8491	  0.0000
     -1.5300	  9.4174	  9.4174	 -4.8491	  0.0000
     -1.5200	  9.4110	  9.4110	 -4.8491	  0.0000
     -1.5100	  9.4047	  9.4047	 -4.8491	  0.0000
     -1.5000	  9.3987	  9.3987	 -4.8491	  0.0000
     -1.4900	  9.3928	  9.3928	 -4.8491	  0.0000
     -1.4800	  9.3871	  9.3871	 -4.8491	  0.0000
     -1.4700	  9.3817	  9.3817	 -4.8491	  0.0000
     -1.4600	  9.3764	  9.3764	 -4.8491	  0.0000
     -1.4500	  9.3715	  9.3714	 -4.8491	  0.0000
     -1.4400	  9.3667	  9.3667	 -4.8491	  0.0000
     -1.4300	  9.3622	  9.3622	 -4.8491	  0.0000
     -1.4200	  9.3579	  9.3579	 -4.8491	  0.0000
     -1.4100	  9.3539	  9.3539	 -4.8491	  0.0000
     -1.4000	  9.3501	  9.3501	 -4.8491	  0.0000
     -1.3900	  9.3467	  9.3467	 -4.8491	  0.0000
     -1.3800	  9.3435	  9.3435	 -4.8491	  0.0000
     -1.3700	  9.3407	  9.3407	 -4.8491	  0.0000
     -1.3600	  9.3382	  9.3382	 -4.8491	  0.0000
     -1.3500	  9.3360	  9.3360	 -4.8491	  0.0000
     -1.3400	  9.3342	  9.3342	 -4.8491	  0.0000
     -1.3300	  9.3327	  9.3327	 -4.8491	  0.0000
     -1.3200	  9.3317	  9.3317	 -4.8491	  0.0000
     -1.3100	  9.3310	  9.3310	 -4.8491	  0.0000
     -1.3000	  9.3308	  9.3309	 -4.8491	  0.0000
     -1.2900	  9.3311	  9.3311	 -4.8491	  0.0000
     -1.2800	  9.3319	  9.3319	 -4.8491	  0.0000
     -1.2700	  9.3332	  9.3332	 -4.8491	  0.0000
     -1.2600	  9.3351	  9.3351	 -4.8491	  0.0000
     -1.2500	  9.3376	  9.3376	 -4.8491	  0.0000
     -1.2400	  9.3407	  9.3407	 -4.8491	  0.0000
     -1.2300	  9.3445	  9.3445	 -4.8491	  0.0000
     -1.2200	  9.3490	  9.3490	 -4.8491	  0.0000
     -1.2100	  9.3543	  9.3543	 -4.8491	  0.0000
     -1.2000	  9.3604	  9.3604	 -4.8491	  0.0000
     -1.1900	  9.3674	  9.3674	 -4.8491	  0.0000
     -1.1800	  9.3754	  9.3754	 -4.8491	  0.0000
     -1.1700	  9.3844	  9.3844	 -4.8491	  0.0000
     -1.1600	  9.3945	  9.3945	 -4.8491	  0.0000
     -1.1500	  9.4058	  9.4058	 -4.8491	  0.0000
     -1.1400	  9.4183	  9.4183	 -4.8491	  0.0000
     -1.1300	  9.4323	  9.4323	 -4.8491	  0.0000
     -1.1200	  9.4477	  9.4477	 -4.8491	  0.0000
     -1.1100	  9.4648	  9.4648	 -4.8491	  0.0000
     -1.1000	  9.4835	  9.4835	 -4.8491	  0.0000
     -1.0900	  9.5041	  9.5041	 -4.8491	  0.0000
     -1.0800	  9.5267	  9.5267	 -4.8491	  0.0000
     -1.0700	  9.5514	  9.5514	 -4.8491	  0.0000
     -1.0600	  9.5784	  9.5784	 -4.8491	  0.0000
     -1.0500	  9.6079	  9.6079	 -4.8491	  0.0000
     -1.0400	  9.6399	  9.6399	 -4.8491	  0.0000
     -1.0300	  9.6747	  9.6747	 -4.8491	  0.0000
     -1.0200	  9.7124	  9.7124	 -4.8491	  0.0000
     -1.0100	  9.7532	  9.7532	 -4.8491	  0.0000
     -1.0000	  9.7970	  9.7970	 -4.8491	  0.0000
     -0.9900	  9.8441	  9.8441	 -4.8491	  0.0000
     -0.9800	  9.8944	  9.8944	 -4.8491	  0.0000
     -0.9700	  9.9478	  9.9478	 -4.8491	  0.0000
     -0.9600	 10.0041	 10.0041	 -4.8491	  0.0000
     -0.9500	 10.0631	 10.0631	 -4.8491	  0.0000
     -0.9400	 10.1241	 10.1241	 -4.8491	  0.0000
     -0.9300	 10.1865	 10.1865	 -4.8491	  0.0000
     -0.9200	 10.2493	 10.2493	 -4.8491	  0.0000
     -0.9100	 10.3110	 10.3110	 -4.8491	  0.0000
     -0.9000	 10.3701	 10.3701	 -4.8491	  0.0000
     -0.8900	 10.4247	 10.4247	 -4.8491	  0.0000
     -0.8800	 10.4726	 10.4726	 -4.8491	  0.0000
     -0.8700	 10.5115	 10.5116	 -4.8491	  0.0000
     -0.8600	 10.5395	 10.5396	 -4.8491	  0.0000
     -0.8500	 10.5549	 10.5550	 -4.8491	  0.0000
     -0.8400	 10.5567	 10.5567	 -4.8491	  0.0000
     -0.8300	 10.5447	 10.5447	 -4.8491	  0.0000
     -0.8200	 10.5195	 10.5195	 -4.8491	  0.0000
     -0.8100	 10.4824	 10.4824	 -4.8491	  0.0000
     -0.8000	 10.4354	 10.4354	 -4.8491	  0.0000
     -0.7900	 10.3806	 10.3806	 -4.8491	  0.0000
     -0.7800	 10.3200	 10.3200	 -4.8491	  0.0000
     -0.7700	 10.2558	 10.2558	 -4.8491	  0.0000
     -0.7600	 10.1896	 10.1896	 -4.8491	  0.0000
     -0.7500	 10.1230	 10.1230	 -4.8491	  0.0000
     -0.7400	 10.0569	 10.0569	 -4.8491	  0.0000
     -0.7300	  9.9923	  9.9923	 -4.8491	  0.0000
     -0.7200	  9.9298	  9.9298	 -4.8491	  0.0000
     -0.7100	  9.8697	  9.8697	 -4.8491	  0.0000
     -0.7000	  9.8124	  9.8124	 -4.8491	  0.0000
     -0.6900	  9.7579	  9.7579	 -4.8491	  0.0000
     -0.6800	  9.7064	  9.7064	 -4.8491	  0.0000
     -0.6700	  9.6577	  9.6577	 -4.8491	  0.0000
     -0.6600	  9.6118	  9.6118	 -4.8491	  0.0000
     -0.6500	  9.5687	  9.5687	 -4.8491	  0.0000
     -0.6400	  9.5281	  9.5281	 -4.8491	  0.0000
     -0.6300	  9.4901	  9.4901	 -4.8491	  0.0000
     -0.6200	  9.4543	  9.4543	 -4.8491	  0.0000
     -0.6100	  9.4207	  9.4207	 -4.8491	  0.0000
     -0.6000	  9.3891	  9.3891	 -4.8491	  0.0000
     -0.5900	  9.3595	  9.3595	 -4.8491	  0.0000
     -0.5800	  9.3317	  9.3317	 -4.8491	  0.0000
     -0.5700	  9.3055	  9.3055	 -4.8491	  0.0000
     -0.5600	  9.2808	  9.2808	 -4.8491	  0.0000
     -0.5500	  9.2576	  9.2576	 -4.8491	  0.0000
     -0.5400	  9.2358	  9.2358	 -4.8491	  0.0000
     -0.5300	  9.2152	  9.2152	 -4.8491	  0.0000
     -0.5200	  9.1958	  9.1958	 -4.8491	  0.0000
     -0.5100	  9.1774	  9.1774	 -4.8491	  0.0000
     -0.5000	  9.1601	  9.1601	 -4.8491	  0.0000
     -0.4900	  9.1437	  9.1437	 -4.8491	  0.0000
     -0.4800	  9.1282	  9.1282	 -4.8491	  0.0000
     -0.4700	  9.1135	  9.1135	 -4.8491	  0.0000
     -0.4600	  9.0996	  9.0996	 -4.8491	  0.0000
     -0.4500	  9.0864	  9.0864	 -4.8491	  0.0000
     -0.4400	  9.0738	  9.0738	 -4.8491	  0.0000
     -0.4300	  9.0619	  9.0619	 -4.8491	  0.0000
     -0.4200	  9.0506	  9.0506	 -4.8491	  0.0000
     -0.4100	  9.0399	  9.0399	 -4.8491	  0.0000
     -0.4000	  9.0296	  9.0296	 -4.8491	  0.0000
     -0.3900	  9.0199	  9.0199	 -4.8491	  0.0000
     -0.3800	  9.0106	  9.0106	 -4.8491	  0.0000
     -0.3700	  9.0018	  9.0018	 -4.8491	  0.0000
     -0.3600	  8.9933	  8.9933	 -4.8491	  0.0000
     -0.3500	  8.9853	  8.9853	 -4.8491	  0.0000
     -0.3400	  8.9776	  8.9776	 -4.8491	  0.0000
     -0.3300	  8.9703	  8.9703	 -4.8491	  0.0000
     -0.3200	  8.9634	  8.9634	 -4.8491	  0.0000
     -0.3100	  8.9567	  8.9567	 -4.8491	  0.0000
     -0.3000	  8.9503	  8.9503	 -4.8491	  0.0000
     -0.2900	  8.9442	  8.9442	 -4.8491	  0.0000
     -0.2800	  8.9384	  8.9384	 -4.8491	  0.0000
     -0.2700	  8.9329	  8.9329	 -4.8491	  0.0000
     -0.2600	  8.9276	  8.9276	 -4.8491	  0.0000
     -0.2500	  8.9225	  8.9225	 -4.8491	  0.0000
     -0.2400	  8.9177	  8.9177	 -4.8491	  0.0000
     -0.2300	  8.9131	  8.9131	 -4.8491	  0.0000
     -0.2200	  8.9087	  8.9087	 -4.8491	  0.0000
     -0.2100	  8.9045	  8.9045	 -4.8491	  0.0000
     -0.2000	  8.9005	  8.9005	 -4.8491	  0.0000
     -0.1900	  8.8967	  8.8967	 -4.8491	  0.0000
     -0.1800	  8.8930	  8.8930	 -4.8491	  0.0000
     -0.1700	  8.8896	  8.8896	 -4.8491	  0.0000
     -0.1600	  8.8863	  8.8863	 -4.8491	  0.0000
     -0.1500	  8.8831	  8.8831	 -4.8491	  0.0000
     -0.1400	  8.8801	  8.8801	 -4.8491	  0.0000
     -0.1300	  8.8773	  8.8773	 -4.8491	  0.0000
     -0.1200	  8.8746	  8.8746	 -4.8491	  0.0000
     -0.1100	  8.8721	  8.8721	 -4.8491	  0.0000
     -0.1000	  8.8697	  8.8697	 -4.8491	  0.0000
     -0.0900	  8.8674	  8.8674	 -4.8491	  0.0000
     -0.0800	  8.8653	  8.8653	 -4.8491	  0.0000
     -0.0700	  8.8633	  8.8633	 -4.8491	  0.0000
     -0.0600	  8.8614	  8.8614	 -4.8491	  0.0000
     -0.0500	  8.8597	  8.8597	 -4.8491	  0.0000
     -0.0400	  8.8581	  8.8581	 -4.8491	  0.0000
     -0.0300	  8.8565	  8.8565	 -4.8491	  0.0000
     -0.0200	  8.8551	  8.8551	 -4.8491	  0.0000
     -0.0100	  8.8539	  8.8539	 -4.8491	  0.0000
      0.0000	  8.8527	  8.8527	 -4.8491	  0.0000
      0.0100	  8.8516	  8.8516	 -4.8491	  0.0000
      0.0200	  8.8507	  8.8507	 -4.8491	  0.0000
      0.0300	  8.8498	  8.8498	 -4.8491	  0.0000
      0.0400	  8.8491	  8.8491	 -4.8491	  0.0000
      0.0500	  8.8484	  8.8484	 -4.8491	  0.0000
      0.0600	  8.8479	  8.8479	 -4.8491	  0.0000
      0.0700	  8.8474	  8.8474	 -4.8491	  0.0000
      0.0800	  8.8471	  8.8471	 -4.8491	  0.0000
      0.0900	  8.8469	  8.8468	 -4.8491	  0.0000
      0.1000	  8.8467	  8.8467	 -4.8491	  0.0000
      0.1100	  8.8467	  8.8467	 -4.8491	  0.0000
      0.1200	  8.8467	  8.8467	 -4.8491	  0.0000
      0.1300	  8.8469	  8.8469	 -4.8491	  0.0000
      0.1400	  8.8471	  8.8471	 -4.8491	  0.0000
      0.1500	  8.8474	  8.8474	 -4.8491	  0.0000
      0.1600	  8.8479	  8.8479	 -4.8491	  0.0000
      0.1700	  8.8484	  8.8484	 -4.8491	  0.0000
      0.1800	  8.8490	  8.8490	 -4.8491	  0.0000
      0.1900	  8.8498	  8.8498	 -4.8491	  0.0000
      0.2000	  8.8506	  8.8506	 -4.8491	  0.0000
      0.2100	  8.8515	  8.8515	 -4.8491	  0.0000
      0.2200	  8.8525	  8.8525	 -4.8491	  0.0000
      0.2300	  8.8536	  8.8536	 -4.8491	  0.0000
      0.2400	  8.8548	  8.8549	 -4.8491	  0.0000
      0.2500	  8.8562	  8.8562	 -4.8491	  0.0000
      0.2600	  8.8576	  8.8576	 -4.8491	  0.0000
      0.2700	  8.8591	  8.8591	 -4.8491	  0.0000
      0.2800	  8.8607	  8.8607	 -4.8491	  0.0000
      0.2900	  8.8625	  8.8625	 -4.8491	  0.0000
      0.3000	  8.8643	  8.8643	 -4.8491	  0.0000
      0.3100	  8.8663	  8.8663	 -4.8491	  0.0000
      0.3200	  8.8684	  8.8684	 -4.8491	  0.0000
      0.3300	  8.8706	  8.8706	 -4.8491	  0.0000
      0.3400	  8.8729	  8.8729	 -4.8491	  0.0000
      0.3500	  8.8753	  8.8753	 -4.8491	  0.0000
      0.3600	  8.8779	  8.8779	 -4.8491	  0.0000
      0.3700	  8.8806	  8.8806	 -4.8491	  0.0000
      0.3800	  8.8834	  8.8834	 -4.8491	  0.0000
      0.3900	  8.8864	  8.8864	 -4.8491	  0.0000
      0.4000	  8.8895	  8.8895	 -4.8491	  0.0000
      0.4100	  8.8928	  8.8928	 -4.8491	  0.0000
      0.4200	  8.8963	  8.8963	 -4.8491	  0.0000
      0.4300	  8.8999	  8.8999	 -4.8491	  0.0000
      0.4400	  8.9038	  8.9037	 -4.8491	  0.0000
      0.4500	  8.9078	  8.9078	 -4.8491	  0.0000
      0.4600	  8.9120	  8.9120	 -4.8491	  0.0000
      0.4700	  8.9164	  8.9164	 -4.8491	  0.0000
      0.4800	  8.9211	  8.9211	 -4.8491	  0.0000
      0.4900	  8.9260	  8.9260	 -4.8491	  0.0000
      0.5000	  8.9312	  8.9312	 -4.8491	  0.0000
      0.5100	  8.9366	  8.9366	 -4.8491	  0.0000
      0.5200	  8.9424	  8.9424	 -4.8491	  0.0000
      0.5300	  8.9485	  8.9485	 -4.8491	  0.0000
      0.5400	  8.9550	  8.9550	 -4.8491	  0.0000
      0.5500	  8.9618	  8.9618	 -4.8491	  0.0000
      0.5600	  8.9691	  8.9691	 -4.8491	  0.0000
      0.5700	  8.9769	  8.9769	 -4.8491	  0.0000
      0.5800	  8.9852	  8.9851	 -4.8491	  0.0000
      0.5900	  8.9940	  8.9940	 -4.8491	  0.0000
      0.6000	  9.0034	  9.0034	 -4.8491	  0.0000
      0.6100	  9.0135	  9.0135	 -4.8491	  0.0000
      0.6200	  9.0244	  9.0244	 -4.8491	  0.0000
      0.6300	  9.0361	  9.0361	 -4.8491	  0.0000
      0.6400	  9.0487	  9.0487	 -4.8491	  0.0000
      0.6500	  9.0623	  9.0623	 -4.8491	  0.0000
      0.6600	  9.0770	  9.0770	 -4.8491	  0.0000
      0.6700	  9.0929	  9.0929	 -4.8491	  0.0000
      0.6800	  9.1101	  9.1101	 -4.8491	  0.0000
      0.6900	  9.1287	  9.1287	 -4.8491	  0.0000
      0.7000	  9.1488	  9.1488	 -4.8491	  0.0000
      0.7100	  9.1704	  9.1704	 -4.8491	  0.0000
      0.7200	  9.1936	  9.1936	 -4.8491	  0.0000
      0.7300	  9.2184	  9.2184	 -4.8491	  0.0000
      0.7400	  9.2446	  9.2446	 -4.8491	  0.0000
      0.7500	  9.2720	  9.2720	 -4.8491	  0.0000
      0.7600	  9.3001	  9.3002	 -4.8491	  0.0000
      0.7700	  9.3285	  9.3285	 -4.8491	  0.0000
      0.7800	  9.3561	  9.3561	 -4.8491	  0.0000
      0.7900	  9.3821	  9.3821	 -4.8491	  0.0000
      0.8000	  9.4052	  9.4052	 -4.8491	  0.0000
      0.8100	  9.4243	  9.4243	 -4.8491	  0.0000
      0.8200	  9.4381	  9.4381	 -4.8491	  0.0000
      0.8300	  9.4460	  9.4460	 -4.8491	  0.0000
      0.8400	  9.4475	  9.4475	 -4.8491	  0.0000
      0.8500	  9.4428	  9.4428	 -4.8491	  0.0000
      0.8600	  9.4325	  9.4325	 -4.8491	  0.0000
      0.8700	  9.4177	  9.4177	 -4.8491	  0.0000
      0.8800	  9.3996	  9.3996	 -4.8491	  0.0000
      0.8900	  9.3794	  9.3794	 -4.8491	  0.0000
      0.9000	  9.3583	  9.3583	 -4.8491	  0.0000
      0.9100	  9.3373	  9.3373	 -4.8491	  0.0000
      0.9200	  9.3169	  9.3169	 -4.8491	  0.0000
      0.9300	  9.2978	  9.2978	 -4.8491	  0.0000
      0.9400	  9.2802	  9.2802	 -4.8491	  0.0000
      0.9500	  9.2643	  9.2643	 -4.8491	  0.0000
      0.9600	  9.2501	  9.2501	 -4.8491	  0.0000
      0.9700	  9.2376	  9.2376	 -4.8491	  0.0000
      0.9800	  9.2268	  9.2268	 -4.8491	  0.0000
      0.9900	  9.2175	  9.2175	 -4.8491	  0.0000
      1.0000	  9.2097	  9.2097	 -4.8491	  0.0000
      1.0100	  9.2031	  9.2031	 -4.8491	  0.0000
      1.0200	  9.1978	  9.1978	 -4.8491	  0.0000
      1.0300	  9.1935	  9.1935	 -4.8491	  0.0000
      1.0400	  9.1903	  9.1903	 -4.8491	  0.0000
      1.0500	  9.1879	  9.1879	 -4.8491	  0.0000
      1.0600	  9.1863	  9.1863	 -4.8491	  0.0000
      1.0700	  9.1855	  9.1855	 -4.8491	  0.0000
      1.0800	  9.1853	  9.1853	 -4.8491	  0.0000
      1.0900	  9.1857	  9.1857	 -4.8491	  0.0000
      1.1000	  9.1866	  9.1866	 -4.8491	  0.0000
      1.1100	  9.1881	  9.1881	 -4.8491	  0.0000
      1.1200	  9.1900	  9.1900	 -4.8491	  0.0000
      1.1300	  9.1923	  9.1923	 -4.8491	  0.0000
      1.1400	  9.1950	  9.1950	 -4.8491	  0.0000
      1.1500	  9.1980	  9.1980	 -4.8491	  0.0000
      1.1600	  9.2014	  9.2014	 -4.8491	  0.0000
      1.1700	  9.2050	  9.2050	 -4.8491	  0.0000
      1.1800	  9.2090	  9.2089	 -4.8491	  0.0000
      1.1900	  9.2131	  9.2131	 -4.8491	  0.0000
      1.2000	  9.2176	  9.2176	 -4.8491	  0.0000
      1.2100	  9.2222	  9.2222	 -4.8491	  0.0000
      1.2200	  9.2271	  9.2271	 -4.8491	  0.0000
      1.2300	  9.2322	  9.2322	 -4.8491	  0.0000
      1.2400	  9.2374	  9.2374	 -4.8491	  0.0000
      1.2500	  9.2429	  9.2429	 -4.8491	  0.0000
      1.2600	  9.2485	  9.2485	 -4.8491	  0.0000
      1.2700	  9.2543	  9.2543	 -4.8491	  0.0000
      1.2800	  9.2602	  9.2602	 -4.8491	  0.0000
      1.2900	  9.2663	  9.2663	 -4.8491	  0.0000
      1.3000	  9.2726	  9.2726	 -4.8491	  0.0000
      1.3100	  9.2789	  9.2789	 -4.8491	  0.0000
      1.3200	  9.2855	  9.2855	 -4.8491	  0.0000
      1.3300	  9.2921	  9.2921	 -4.8491	  0.0000
      1.3400	  9.2989	  9.2989	 -4.8491	  0.0000
      1.3500	  9.3058	  9.3058	 -4.8491	  0.0000
      1.3600	  9.3128	  9.3129	 -4.8491	  0.0000
      1.3700	  9.3200	  9.3200	 -4.8491	  0.0000
      1.3800	  9.3273	  9.3273	 -4.8491	  0.0000
      1.3900	  9.3347	  9.3347	 -4.8491	  0.0000
      1.4000	  9.3422	  9.3422	 -4.8491	  0.0000
      1.4100	  9.3498	  9.3498	 -4.8491	  0.0000
      1.4200	  9.3575	  9.3575	 -4.8491	  0.0000
      1.4300	  9.3654	  9.3654	 -4.8491	  0.0000
      1.4400	  9.3733	  9.3733	 -4.8491	  0.0000
      1.4500	  9.3814	  9.3814	 -4.8491	  0.0000
      1.4600	  9.3895	  9.3895	 -4.8491	  0.0000
      1.4700	  9.3978	  9.3978	 -4.8491	  0.0000
      1.4800	  9.4062	  9.4062	 -4.8491	  0.0000
      1.4900	  9.4146	  9.4146	 -4.8491	  0.0000
      1.5000	  9.4232	  9.4232	 -4.8491	  0.0000
      1.5100	  9.4319	  9.4319	 -4.8491	  0.0000
      1.5200	  9.4407	  9.4407	 -4.8491	  0.0000
      1.5300	  9.4496	  9.4496	 -4.8491	  0.0000
      1.5400	  9.4586	  9.4586	 -4.8491	  0.0000
      1.5500	  9.4677	  9.4677	 -4.8491	  0.0000
      1.5600	  9.4769	  9.4769	 -4.8491	  0.0000
      1.5700	  9.4862	  9.4862	 -4.8491	  0.0000
      1.5800	  9.4957	  9.4957	 -4.8491	  0.0000
      1.5900	  9.5052	  9.5052	 -4.8491	  0.0000
      1.6000	  9.5148	  9.5148	 -4.8491	  0.0000
      1.6100	  9.5245	  9.5245	 -4.8491	  0.0000
      1.6200	  9.5344	  9.5344	 -4.8491	  0.0000
      1.6300	  9.5443	  9.5443	 -4.8491	  0.0000
      1.6400	  9.5543	  9.5543	 -4.8491	  0.0000
      1.6500	  9.5645	  9.5645	 -4.8491	  0.0000
      1.6600	  9.5748	  9.5748	 -4.8491	  0.0000
      1.6700	  9.5851	  9.5851	 -4.8491	  0.0000
      1.6800	  9.5956	  9.5956	 -4.8491	  0.0000
      1.6900	  9.6062	  9.6062	 -4.8491	  0.0000
      1.7000	  9.6169	  9.6169	 -4.8491	  0.0000
      1.7100	  9.6277	  9.6277	 -4.8491	  0.0000
      1.7200	  9.6386	  9.6386	 -4.8491	  0.0000
      1.7300	  9.6496	  9.6496	 -4.8491	  0.0000
      1.7400	  9.6608	  9.6608	 -4.8491	  0.0000
      1.7500	  9.6720	  9.6720	 -4.8491	  0.0000
      1.7600	  9.6834	  9.6834	 -4.8491	  0.0000
      1.7700	  9.6949	  9.6949	 -4.8491	  0.0000
      1.7800	  9.7065	  9.7065	 -4.8491	  0.0000
      1.7900	  9.7182	  9.7182	 -4.8491	  0.0000
      1.8000	  9.7300	  9.7300	 -4.8491	  0.0000
      1.8100	  9.7420	  9.7420	 -4.8491	  0.0000
      1.8200	  9.7541	  9.7540	 -4.8491	  0.0000
      1.8300	  9.7662	  9.7662	 -4.8491	  0.0000
      1.8400	  9.7786	  9.7786	 -4.8491	  0.0000
      1.8500	  9.7910	  9.7910	 -4.8491	  0.0000
      1.8600	  9.8036	  9.8036	 -4.8491	  0.0000
      1.8700	  9.8163	  9.8163	 -4.8491	  0.0000
      1.8800	  9.8291	  9.8291	 -4.8491	  0.0000
      1.8900	  9.8420	  9.8420	 -4.8491	  0.0000
      1.9000	  9.8551	  9.8551	 -4.8491	  0.0000
      1.9100	  9.8683	  9.8683	 -4.8491	  0.0000
      1.9200	  9.8817	  9.8817	 -4.8491	  0.0000
      1.9300	  9.8951	  9.8951	 -4.8491	  0.0000
      1.9400	  9.9087	  9.9087	 -4.8491	  0.0000
      1.9500	  9.9225	  9.9225	 -4.8491	  0.0000
      1.9600	  9.9364	  9.9364	 -4.8491	  0.0000
      1.9700	  9.9504	  9.9504	 -4.8491	  0.0000
      1.9800	  9.9646	  9.9646	 -4.8491	  0.0000
      1.9900	  9.9789	  9.9789	 -4.8491	  0.0000
      2.0000	  9.9934	  9.9933	 -4.8491	  0.0000
      2.0100	 10.0079	 10.0080	 -4.8491	  0.0000
      2.0200	 10.0227	 10.0227	 -4.8491	  0.0000
      2.0300	 10.0376	 10.0376	 -4.8491	  0.0000
      2.0400	 10.0527	 10.0527	 -4.8491	  0.0000
      2.0500	 10.0679	 10.0679	 -4.8491	  0.0000
      2.0600	 10.0832	 10.0832	 -4.8491	  0.0000
      2.0700	 10.0988	 10.0988	 -4.8491	  0.0000
      2.0800	 10.1144	 10.1144	 -4.8491	  0.0000
      2.0900	 10.1303	 10.1303	 -4.8491	  0.0000
      2.1000	 10.1463	 10.1463	 -4.8491	  0.0000
      2.1100	 10.1624	 10.1625	 -4.8491	  0.0000
      2.1200	 10.1788	 10.1788	 -4.8491	  0.0000
      2.1300	 10.1953	 10.1953	 -4.8491	  0.0000
      2.1400	 10.2120	 10.2120	 -4.8491	  0.0000
      2.1500	 10.2288	 10.2288	 -4.8491	  0.0000
      2.1600	 10.2459	 10.2459	 -4.8491	  0.0000
      2.1700	 10.2631	 10.2631	 -4.8491	  0.0000
      2.1800	 10.2805	 10.2805	 -4.8491	  0.0000
      2.1900	 10.2980	 10.2980	 -4.8491	  0.0000
      2.2000	 10.3158	 10.3158	 -4.8491	  0.0000
      2.2100	 10.3337	 10.3337	 -4.8491	  0.0000
      2.2200	 10.3519	 10.3519	 -4.8491	  0.0000
      2.2300	 10.3702	 10.3702	 -4.8491	  0.0000
      2.2400	 10.3887	 10.3887	 -4.8491	  0.0000
      2.2500	 10.4074	 10.4074	 -4.8491	  0.0000
      2.2600	 10.4264	 10.4264	 -4.8491	  0.0000
      2.2700	 10.4455	 10.4455	 -4.8491	  0.0000
      2.2800	 10.4648	 10.4648	 -4.8491	  0.0000
      2.2900	 10.4844	 10.4844	 -4.8491	  0.0000
      2.3000	 10.5041	 10.5041	 -4.8491	  0.0000
      2.3100	 10.5241	 10.5241	 -4.8491	  0.0000
      2.3200	 10.5442	 10.5442	 -4.8491	  0.0000
      2.3300	 10.5646	 10.5646	 -4.8491	  0.0000
      2.3400	 10.5853	 10.5853	 -4.8491	  0.0000
      2.3500	 10.6061	 10.6061	 -4.8491	  0.0000
      2.3600	 10.6272	 10.6272	 -4.8491	  0.0000
      2.3700	 10.6485	 10.6485	 -4.8491	  0.0000
      2.3800	 10.6700	 10.6700	 -4.8491	  0.0000
      2.3900	 10.6918	 10.6918	 -4.8491	  0.0000
      2.4000	 10.7138	 10.7138	 -4.8491	  0.0000
      2.4100	 10.7361	 10.7361	 -4.8491	  0.0000
      2.4200	 10.7585	 10.7586	 -4.8491	  0.0000
      2.4300	 10.7813	 10.7813	 -4.8491	  0.0000
      2.4400	 10.8043	 10.8043	 -4.8491	  0.0000
      2.4500	 10.8275	 10.8275	 -4.8491	  0.0000
      2.4600	 10.8510	 10.8510	 -4.8491	  0.0000
      2.4700	 10.8748	 10.8748	 -4.8491	  0.0000
      2.4800	 10.8988	 10.8988	 -4.8491	  0.0000
      2.4900	 10.9231	 10.9231	 -4.8491	  0.0000
      2.5000	 10.9476	 10.9476	 -4.8491	  0.0000
      2.5100	 10.9724	 10.9724	 -4.8491	  0.0000
      2.5200	 10.9975	 10.9975	 -4.8491	  0.0000
      2.5300	 11.0228	 11.0228	 -4.8491	  0.0000
      2.5400	 11.0484	 11.0484	 -4.8491	  0.0000
      2.5500	 11.0743	 11.0743	 -4.8491	  0.0000
      2.5600	 11.1004	 11.1005	 -4.8491	  0.0000
      2.5700	 11.1269	 11.1269	 -4.8491	  0.0000
      2.5800	 11.1536	 11.1536	 -4.8491	  0.0000
      2.5900	 11.1805	 11.1805	 -4.8491	  0.0000
      2.6000	 11.2078	 11.2078	 -4.8491	  0.0000
      2.6100	 11.2353	 11.2353	 -4.8491	  0.0000
      2.6200	 11.2630	 11.2630	 -4.8491	  0.0000
      2.6300	 11.2911	 11.2911	 -4.8491	  0.0000
      2.6400	 11.3194	 11.3194	 -4.8491	  0.0000
      2.6500	 11.3479	 11.3479	 -4.8491	  0.0000
      2.6600	 11.3767	 11.3767	 -4.8491	  0.0000
      2.6700	 11.4058	 11.4058	 -4.8491	  0.0000
      2.6800	 11.4351	 11.4351	 -4.8491	  0.0000
      2.6900	 11.4646	 11.4646	 -4.8491	  0.0000
      2.7000	 11.4943	 11.4943	 -4.8491	  0.0000
      2.7100	 11.5243	 11.5243	 -4.8491	  0.0000
      2.7200	 11.5545	 11.5545	 -4.8491	  0.0000
      2.7300	 11.5848	 11.5848	 -4.8491	  0.0000
      2.7400	 11.6153	 11.6153	 -4.8491	  0.0000
      2.7500	 11.6460	 11.6460	 -4.8491	  0.0000
      2.7600	 11.6768	 11.6768	 -4.8491	  0.0000
      2.7700	 11.7077	 11.7077	 -4.8491	  0.0000
      2.7800	 11.7387	 11.7387	 -4.8491	  0.0000
      2.7900	 11.7698	 11.7698	 -4.8491	  0.0000
      2.8000	 11.8009	 11.8009	 -4.8491	  0.0000
      2.8100	 11.8321	 11.8321	 -4.8491	  0.0000
      2.8200	 11.8631	 11.8631	 -4.8491	  0.0000
      2.8300	 11.8941	 11.8942	 -4.8491	  0.0000
      2.8400	 11.9250	 11.9251	 -4.8491	  0.0000
      2.8500	 11.9558	 11.9558	 -4.8491	  0.0000
      2.8600	 11.9863	 11.9863	 -4.8491	  0.0000
      2.8700	 12.0166	 12.0166	 -4.8491	  0.0000
      2.8800	 12.0465	 12.0465	 -4.8491	  0.0000
      2.8900	 12.0761	 12.0761	 -4.8491	  0.0000
      2.9000	 12.1052	 12.1052	 -4.8491	  0.0000
      2.9100	 12.1338	 12.1338	 -4.8491	  0.0000
      2.9200	 12.1618	 12.1618	 -4.8491	  0.0000
      2.9300	 12.1891	 12.1891	 -4.8491	  0.0000
      2.9400	 12.2157	 12.2157	 -4.8491	  0.0000
      2.9500	 12.2414	 12.2414	 -4.8491	  0.0000
      2.9600	 12.2662	 12.2662	 -4.8491	  0.0000
      2.9700	 12.2900	 12.2900	 -4.8491	  0.0000
      2.9800	 12.3127	 12.3127	 -4.8491	  0.0000
      2.9900	 12.3342	 12.3342	 -4.8491	  0.0000
      3.0000	 12.3544	 12.3544	 -4.8491	  0.0000
      3.0100	 12.3731	 12.3732	 -4.8491	  0.0000
      3.0200	 12.3905	 12.3905	 -4.8491	  0.0000
      3.0300	 12.4062	 12.4062	 -4.8491	  0.0000
      3.0400	 12.4203	 12.4203	 -4.8491	  0.0000
      3.0500	 12.4327	 12.4327	 -4.8491	  0.0000
      3.0600	 12.4433	 12.4434	 -4.8491	  0.0000
      3.0700	 12.4521	 12.4521	 -4.8491	  0.0000
      3.0800	 12.4590	 12.4590	 -4.8491	  0.0000
      3.0900	 12.4640	 12.4640	 -4.8491	  0.0000
      3.1000	 12.4669	 12.4669	 -4.8491	  0.0000
      3.1100	 12.4679	 12.4680	 -4.8491	  0.0000
      3.1200	 12.4670	 12.4670	 -4.8491	  0.0000
      3.1300	 12.4640	 12.4640	 -4.8491	  0.0000
      3.1400	 12.4591	 12.4591	 -4.8491	  0.0000
      3.1500	 12.4523	 12.4523	 -4.8491	  0.0000
      3.1600	 12.4436	 12.4436	 -4.8491	  0.0000
      3.1700	 12.4331	 12.4331	 -4.8491	  0.0000
      3.1800	 12.4208	 12.4208	 -4.8491	  0.0000
      3.1900	 12.4068	 12.4068	 -4.8491	  0.0000
      3.2000	 12.3912	 12.3912	 -4.8491	  0.0000
      3.2100	 12.3740	 12.3740	 -4.8491	  0.0000
      3.2200	 12.3554	 12.3554	 -4.8491	  0.0000
      3.2300	 12.3354	 12.3354	 -4.8491	  0.0000
      3.2400	 12.3142	 12.3142	 -4.8491	  0.0000
      3.2500	 12.2918	 12.2918	 -4.8491	  0.0000
      3.2600	 12.2683	 12.2683	 -4.8491	  0.0000
      3.2700	 12.2438	 12.2438	 -4.8491	  0.0000
      3.2800	 12.2184	 12.2184	 -4.8491	  0.0000
      3.2900	 12.1922	 12.1922	 -4.8491	  0.0000
      3.3000	 12.1653	 12.1653	 -4.8491	  0.0000
      3.3100	 12.1377	 12.1377	 -4.8491	  0.0000
      3.3200	 12.1096	 12.1096	 -4.8491	  0.0000
      3.3300	 12.0810	 12.0810	 -4.8491	  0.0000
      3.3400	 12.0520	 12.0520	 -4.8491	  0.0000
      3.3500	 12.0226	 12.0226	 -4.8491	  0.0000
      3.3600	 11.9929	 11.9929	 -4.8491	  0.0000
      3.3700	 11.9630	 11.9630	 -4.8491	  0.0000
      3.3800	 11.9329	 11.9329	 -4.8491	  0.0000
      3.3900	 11.9027	 11.9027	 -4.8491	  0.0000
      3.4000	 11.8724	 11.8724	 -4.8491	  0.0000
      3.4100	 11.8420	 11.8420	 -4.8491	  0.0000
      3.4200	 11.8117	 11.8117	 -4.8491	  0.0000
      3.4300	 11.7813	 11.7813	 -4.8491	  0.0000
      3.4400	 11.7511	 11.7511	 -4.8491	  0.0000
      3.4500	 11.7209	 11.7209	 -4.8491	  0.0000
      3.4600	 11.6909	 11.6909	 -4.8491	  0.0000
      3.4700	 11.6610	 11.6610	 -4.8491	  0.0000
      3.4800	 11.6313	 11.6313	 -4.8491	  0.0000
      3.4900	 11.6017	 11.6017	 -4.8491	  0.0000
      3.5000	 11.5724	 11.5724	 -4.8491	  0.0000
      3.5100	 11.5433	 11.5433	 -4.8491	  0.0000
      3.5200	 11.5144	 11.5144	 -4.8491	  0.0000
      3.5300	 11.4858	 11.4858	 -4.8491	  0.0000
      3.5400	 11.4574	 11.4574	 -4.8491	  0.0000
      3.5500	 11.4293	 11.4293	 -4.8491	  0.0000
      3.5600	 11.4015	 11.4015	 -4.8491	  0.0000
      3.5700	 11.3740	 11.3740	 -4.8491	  0.0000
      3.5800	 11.3467	 11.3467	 -4.8491	  0.0000
      3.5900	 11.3198	 11.3198	 -4.8491	  0.0000
      3.6000	 11.2931	 11.2931	 -4.8491	  0.0000
      3.6100	 11.2668	 11.2668	 -4.8491	  0.0000
      3.6200	 11.2408	 11.2408	 -4.8491	  0.0000
      3.6300	 11.2150	 11.2151	 -4.8491	  0.0000
      3.6400	 11.1897	 11.1897	 -4.8491	  0.0000
      3.6500	 11.1646	 11.1646	 -4.8491	  0.0000
      3.6600	 11.1398	 11.1398	 -4.8491	  0.0000
      3.6700	 11.1154	 11.1154	 -4.8491	  0.0000
      3.6800	 11.0913	 11.0913	 -4.8491	  0.0000
      3.6900	 11.0675	 11.0675	 -4.8491	  0.0000
      3.7000	 11.0440	 11.0440	 -4.8491	  0.0000
      3.7100	 11.0209	 11.0209	 -4.8491	  0.0000
      3.7200	 10.9981	 10.9981	 -4.8491	  0.0000
      3.7300	 10.9756	 10.9756	 -4.8491	  0.0000
      3.7400	 10.9534	 10.9534	 -4.8491	  0.0000
      3.7500	 10.9316	 10.9316	 -4.8491	  0.0000
      3.7600	 10.9100	 10.9100	 -4.8491	  0.0000
      3.7700	 10.8888	 10.8888	 -4.8491	  0.0000
      3.7800	 10.8679	 10.8679	 -4.8491	  0.0000
      3.7900	 10.8474	 10.8474	 -4.8491	  0.0000
      3.8000	 10.8271	 10.8271	 -4.8491	  0.0000
      3.8100	 10.8072	 10.8072	 -4.8491	  0.0000
      3.8200	 10.7876	 10.7876	 -4.8491	  0.0000
      3.8300	 10.7683	 10.7683	 -4.8491	  0.0000
      3.8400	 10.7494	 10.7494	 -4.8491	  0.0000
      3.8500	 10.7307	 10.7307	 -4.8491	  0.0000
      3.8600	 10.7124	 10.7124	 -4.8491	  0.0000
      3.8700	 10.6944	 10.6944	 -4.8491	  0.0000
      3.8800	 10.6767	 10.6767	 -4.8491	  0.0000
      3.8900	 10.6593	 10.6593	 -4.8491	  0.0000
      3.9000	 10.6423	 10.6423	 -4.8491	  0.0000
      3.9100	 10.6255	 10.6255	 -4.8491	  0.0000
      3.9200	 10.6091	 10.6091	 -4.8491	  0.0000
      3.9300	 10.5930	 10.5930	 -4.8491	  0.0000
      3.9400	 10.5772	 10.5772	 -4.8491	  0.0000
      3.9500	 10.5617	 10.5617	 -4.8491	  0.0000
      3.9600	 10.5466	 10.5466	 -4.8491	  0.0000
      3.9700	 10.5317	 10.5317	 -4.8491	  0.0000
      3.9800	 10.5172	 10.5172	 -4.8491	  0.0000
      3.9900	 10.5030	 10.5030	 -4.8491	  0.0000
      4.0000	 10.4892	 10.4891	 -4.8491	  0.0000
      4.0100	 10.4756	 10.4756	 -4.8491	  0.0000
      4.0200	 10.4624	 10.4624	 -4.8491	  0.0000
      4.0300	 10.4495	 10.4495	 -4.8491	  0.0000
      4.0400	 10.4369	 10.4369	 -4.8491	  0.0000
      4.0500	 10.4247	 10.4247	 -4.8491	  0.0000
      4.0600	 10.4128	 10.4128	 -4.8491	  0.0000
      4.0700	 10.4012	 10.4012	 -4.8491	  0.0000
      4.0800	 10.3900	 10.3900	 -4.8491	  0.0000
      4.0900	 10.3791	 10.3791	 -4.8491	  0.0000
      4.1000	 10.3686	 10.3686	 -4.8491	  0.0000
      4.1100	 10.3584	 10.3584	 -4.8490	  0.0000
      4.1200	 10.3485	 10.3485	 -4.8491	  0.0000
      4.1300	 10.3391	 10.3391	 -4.8491	  0.0000
      4.1400	 10.3300	 10.3300	 -4.8490	  0.0000
      4.1500	 10.3212	 10.3212	 -4.8491	  0.0000
      4.1600	 10.3128	 10.3128	 -4.8491	  0.0000
      4.1700	 10.3049	 10.3048	 -4.8490	  0.0000
      4.1800	 10.2972	 10.2972	 -4.8490	  0.0000
      4.1900	 10.2900	 10.2900	 -4.8490	  0.0000
      4.2000	 10.2832	 10.2832	 -4.8491	  0.0000
      4.2100	 10.2768	 10.2768	 -4.8491	  0.0000
      4.2200	 10.2708	 10.2708	 -4.8490	  0.0000
      4.2300	 10.2652	 10.2652	 -4.8490	  0.0000
      4.2400	 10.2600	 10.2600	 -4.8490	  0.0000
      4.2500	 10.2553	 10.2553	 -4.8491	  0.0000
      4.2600	 10.2510	 10.2510	 -4.8490	  0.0000
      4.2700	 10.2472	 10.2472	 -4.8490	  0.0000
      4.2800	 10.2438	 10.2438	 -4.8490	  0.0000
      4.2900	 10.2410	 10.2410	 -4.8490	  0.0000
      4.3000	 10.2386	 10.2386	 -4.8490	  0.0000
      4.3100	 10.2367	 10.2367	 -4.8490	  0.0000
      4.3200	 10.2353	 10.2353	 -4.8490	  0.0000
      4.3300	 10.2345	 10.2345	 -4.8490	  0.0000
      4.3400	 10.2342	 10.2342	 -4.8490	  0.0000
      4.3500	 10.2345	 10.2345	 -4.8490	  0.0000
      4.3600	 10.2353	 10.2353	 -4.8490	  0.0000
      4.3700	 10.2368	 10.2368	 -4.8490	  0.0000
      4.3800	 10.2388	 10.2388	 -4.8490	  0.0000
      4.3900	 10.2415	 10.2415	 -4.8490	  0.0000
      4.4000	 10.2449	 10.2449	 -4.8490	  0.0000
      4.4100	 10.2489	 10.2489	 -4.8490	  0.0000
      4.4200	 10.2536	 10.2536	 -4.8490	  0.0000
      4.4300	 10.2591	 10.2591	 -4.8490	  0.0000
      4.4400	 10.2653	 10.2653	 -4.8490	  0.0000
      4.4500	 10.2723	 10.2722	 -4.8490	  0.0000
      4.4600	 10.2801	 10.2800	 -4.8490	  0.0000
      4.4700	 10.2887	 10.2887	 -4.8490	  0.0000
      4.4800	 10.2982	 10.2982	 -4.8490	  0.0000
      4.4900	 10.3086	 10.3086	 -4.8490	  0.0000
      4.5000	 10.3200	 10.3199	 -4.8490	  0.0000
      4.5100	 10.3323	 10.3323	 -4.8490	  0.0000
      4.5200	 10.3457	 10.3457	 -4.8490	  0.0000
      4.5300	 10.3602	 10.3601	 -4.8490	  0.0000
      4.5400	 10.3757	 10.3757	 -4.8490	  0.0000
      4.5500	 10.3925	 10.3924	 -4.8490	  0.0000
      4.5600	 10.4104	 10.4104	 -4.8490	  0.0000
      4.5700	 10.4297	 10.4297	 -4.8490	  0.0000
      4.5800	 10.4503	 10.4503	 -4.8490	  0.0000
      4.5900	 10.4723	 10.4723	 -4.8490	  0.0000
      4.6000	 10.4958	 10.4958	 -4.8490	  0.0000
      4.6100	 10.5209	 10.5209	 -4.8490	  0.0000
      4.6200	 10.5476	 10.5476	 -4.8490	  0.0000
      4.6300	 10.5761	 10.5760	 -4.8490	  0.0000
      4.6400	 10.6064	 10.6063	 -4.8490	  0.0000
      4.6500	 10.6386	 10.6385	 -4.8490	  0.0000
      4.6600	 10.6728	 10.6727	 -4.8490	  0.0000
      4.6700	 10.7092	 10.7091	 -4.8490	  0.0000
      4.6800	 10.7479	 10.7478	 -4.8490	  0.0000
      4.6900	 10.7890	 10.7889	 -4.8490	  0.0000
      4.7000	 10.8327	 10.8326	 -4.8490	  0.0000
      4.7100	 10.8791	 10.8791	 -4.8490	  0.0000
      4.7200	 10.9285	 10.9284	 -4.8490	  0.0000
      4.7300	 10.9810	 10.9810	 -4.8490	  0.0000
      4.7400	 11.0369	 11.0368	 -4.8490	  0.0000
      4.7500	 11.0964	 11.0963	 -4.8490	  0.0000
      4.7600	 11.1598	 11.1597	 -4.8490	  0.0000
      4.7700	 11.2274	 11.2273	 -4.8490	  0.0000
      4.7800	 11.2995	 11.2995	 -4.8490	  0.0000
      4.7900	 11.3766	 11.3766	 -4.8490	  0.0000
      4.8000	 11.4591	 11.4591	 -4.8490	  0.0000
      4.8100	 11.5476	 11.5475	 -4.8490	  0.0000
      4.8200	 11.6426	 11.6425	 -4.8490	  0.0000
      4.8300	 11.7449	 11.7448	 -4.8490	  0.0000
      4.8400	 11.8553	 11.8552	 -4.8490	  0.0000
      4.8500	 11.9747	 11.9747	 -4.8490	  0.0000
      4.8600	 12.1046	 12.1045	 -4.8490	  0.0000
      4.8700	 12.2462	 12.2462	 -4.8490	  0.0000
      4.8800	 12.4016	 12.4015	 -4.8490	  0.0000
      4.8900	 12.5730	 12.5730	 -4.8490	  0.0000
      4.9000	 12.7636	 12.7636	 -4.8490	  0.0000
      4.9100	 12.9776	 12.9775	 -4.8490	  0.0000
      4.9200	 13.2205	 13.2204	 -4.8490	  0.0000
      4.9300	 13.5006	 13.5005	 -4.8490	  0.0000
      4.9400	 13.8303	 13.8302	 -4.8490	  0.0000
      4.9500	 14.2297	 14.2297	 -4.8490	  0.0000
      4.9600	 14.7350	 14.7349	 -4.8490	  0.0000
      4.9700	 15.4220	 15.4219	 -4.8490	  0.0000
      4.9800	 16.5075	 16.5074	 -4.8490	  0.0000
      4.9900	 19.3962	 19.3961	 -4.8490	  0.0000
      5.0000	 19.3956	 19.3957	 -4.8492	  0.0000
