
  1   1001     1.54056     0.00000     0.00000     0.00000     0.00000    0
     0     0     0
 2Theta	Yobs	Ycal	Yobs-Ycal	Backg	Posr	(hkl)	K
     -5.0000	 14.2422	 14.2422	 -6.2196	  0.0000
     -4.9900	 14.2416	 14.2416	 -6.2196	  0.0000
     -4.9800	 14.2410	 14.2410	 -6.2196	  0.0000
     -4.9700	 14.2406	 14.2406	 -6.2196	  0.0000
     -4.9600	 14.2403	 14.2403	 -6.2196	  0.0000
     -4.9500	 14.2401	 14.2401	 -6.2196	  0.0000
     -4.9400	 14.2400	 14.2400	 -6.2196	  0.0000
     -4.9300	 14.2400	 14.2400	 -6.2196	  0.0000
     -4.9200	 14.2401	 14.2401	 -6.2196	  0.0000
     -4.9100	 14.2402	 14.2402	 -6.2196	  0.0000
     -4.9000	 14.2405	 14.2405	 -6.2196	  0.0000
     -4.8900	 14.2409	 14.2409	 -6.2196	  0.0000
     -4.8800	 14.2413	 14.2413	 -6.2196	  0.0000
     -4.8700	 14.2419	 14.2419	 -6.2196	  0.0000
     -4.8600	 14.2425	 14.2425	 -6.2196	  0.0000
     -4.8500	 14.2432	 14.2432	 -6.2196	  0.0000
     -4.8400	 14.2440	 14.2440	 -6.2196	  0.0000
     -4.8300	 14.2449	 14.2449	 -6.2196	  0.0000
     -4.8200	 14.2459	 14.2459	 -6.2196	  0.0000
     -4.8100	 14.2470	 14.2470	 -6.2196	  0.0000
     -4.8000	 14.2482	 14.2482	 -6.2196	  0.0000
     -4.7900	 14.2495	 14.2495	 -6.2196	  0.0000
     -4.7800	 14.2509	 14.2509	 -6.2196	  0.0000
     -4.7700	 14.2523	 14.2523	 -6.2196	  0.0000
     -4.7600	 14.2539	 14.2539	 -6.2196	  0.0000
     -4.7500	 14.2555	 14.2555	 -6.2196	  0.0000
     -4.7400	 14.2573	 14.2573	 -6.2196	  0.0000
     -4.7300	 14.2591	 14.2591	 -6.2196	  0.0000
     -4.7200	 14.2611	 14.2611	 -6.2196	  0.0000
     -4.7100	 14.2631	 14.2631	 -6.2196	  0.0000
     -4.7000	 14.2653	 14.2653	 -6.2196	  0.0000
     -4.6900	 14.2676	 14.2676	 -6.2196	  0.0000
     -4.6800	 14.2699	 14.2699	 -6.2196	  0.0000
     -4.6700	 14.2724	 14.2724	 -6.2196	  0.0000
     -4.6600	 14.2750	 14.2750	 -6.2196	  0.0000
     -4.6500	 14.2778	 14.2777	 -6.2196	  0.0000
     -4.6400	 14.2806	 14.2806	 -6.2196	  0.0000
     -4.6300	 14.2836	 14.2836	 -6.2196	  0.0000
     -4.6200	 14.2867	 14.2867	 -6.2196	  0.0000
     -4.6100	 14.2899	 14.2899	 -6.2196	  0.0000
     -4.6000	 14.2933	 14.2933	 -6.2196	  0.0000
     -4.5900	 14.2969	 14.2969	 -6.2196	  0.0000
     -4.5800	 14.3006	 14.3006	 -6.2196	  0.0000
     -4.5700	 14.3045	 14.3045	 -6.2196	  0.0000
     -4.5600	 14.3085	 14.3085	 -6.2196	  0.0000
     -4.5500	 14.3128	 14.3128	 -6.2196	  0.0000
     -4.5400	 14.3173	 14.3172	 -6.2196	  0.0000
     -4.5300	 14.3219	 14.3219	 -6.2196	  0.0000
     -4.5200	 14.3268	 14.3268	 -6.2196	  0.0000
     -4.5100	 14.3319	 14.3319	 -6.2196	  0.0000
     -4.5000	 14.3373	 14.3373	 -6.2196	  0.0000
     -4.4900	 14.3430	 14.3430	 -6.2196	  0.0000
     -4.4800	 14.3490	 14.3490	 -6.2196	  0.0000
     -4.4700	 14.3553	 14.3553	 -6.2196	  0.0000
     -4.4600	 14.3619	 14.3620	 -6.2196	  0.0000
     -4.4500	 14.3690	 14.3690	 -6.2196	  0.0000
     -4.4400	 14.3765	 14.3765	 -6.2196	  0.0000
     -4.4300	 14.3844	 14.3844	 -6.2196	  0.0000
     -4.4200	 14.3929	 14.3929	 -6.2196	  0.0000
     -4.4100	 14.4019	 14.4019	 -6.2196	  0.0000
     -4.4000	 14.4115	 14.4115	 -6.2196	  0.0000
     -4.3900	 14.4218	 14.4218	 -6.2196	  0.0000
     -4.3800	 14.4328	 14.4328	 -6.2196	  0.0000
     -4.3700	 14.4446	 14.4446	 -6.2196	  0.0000
     -4.3600	 14.4574	 14.4574	 -6.2196	  0.0000
     -4.3500	 14.4711	 14.4711	 -6.2196	  0.0000
     -4.3400	 14.4860	 14.4860	 -6.2196	  0.0000
     -4.3300	 14.5020	 14.5020	 -6.2196	  0.0000
     -4.3200	 14.5193	 14.5193	 -6.2196	  0.0000
     -4.3100	 14.5381	 14.5381	 -6.2196	  0.0000
     -4.3000	 14.5583	 14.5583	 -6.2196	  0.0000
     -4.2900	 14.5800	 14.5800	 -6.2196	  0.0000
     -4.2800	 14.6034	 14.6034	 -6.2196	  0.0000
     -4.2700	 14.6283	 14.6283	 -6.2196	  0.0000
     -4.2600	 14.6546	 14.6546	 -6.2196	  0.0000
     -4.2500	 14.6821	 14.6821	 -6.2196	  0.0000
     -4.2400	 14.7103	 14.7103	 -6.2196	  0.0000
     -4.2300	 14.7387	 14.7387	 -6.2196	  0.0000
     -4.2200	 14.7665	 14.7665	 -6.2196	  0.0000
     -4.2100	 14.7926	 14.7926	 -6.2196	  0.0000
     -4.2000	 14.8158	 14.8158	 -6.2196	  0.0000
     -4.1900	 14.8349	 14.8349	 -6.2196	  0.0000
     -4.1800	 14.8488	 14.8488	 -6.2196	  0.0000
     -4.1700	 14.8568	 14.8568	 -6.2196	  0.0000
     -4.1600	 14.8583	 14.8583	 -6.2196	  0.0000
     -4.1500	 14.8537	 14.8537	 -6.2196	  0.0000
     -4.1400	 14.8435	 14.8435	 -6.2196	  0.0000
     -4.1300	 14.8287	 14.8287	 -6.2196	  0.0000
     -4.1200	 14.8107	 14.8107	 -6.2196	  0.0000
     -4.1100	 14.7905	 14.7905	 -6.2196	  0.0000
     -4.1000	 14.7695	 14.7695	 -6.2196	  0.0000
     -4.0900	 14.7485	 14.7485	 -6.2196	  0.0000
     -4.0800	 14.7282	 14.7282	 -6.2196	  0.0000
     -4.0700	 14.7091	 14.7091	 -6.2196	  0.0000
     -4.0600	 14.6915	 14.6915	 -6.2196	  0.0000
     -4.0500	 14.6756	 14.6756	 -6.2196	  0.0000
     -4.0400	 14.6614	 14.6614	 -6.2196	  0.0000
     -4.0300	 14.6490	 14.6490	 -6.2196	  0.0000
     -4.0200	 14.6382	 14.6382	 -6.2196	  0.0000
     -4.0100	 14.6289	 14.6289	 -6.2196	  0.0000
     -4.0000	 14.6210	 14.6211	 -6.2196	  0.0000
     -3.9900	 14.6145	 14.6145	 -6.2196	  0.0000
     -3.9800	 14.6092	 14.6092	 -6.2196	  0.0000
     -3.9700	 14.6049	 14.6049	 -6.2196	  0.0000
     -3.9600	 14.6017	 14.6017	 -6.2196	  0.0000
     -3.9500	 14.5993	 14.5993	 -6.2196	  0.0000
     -3.9400	 14.5977	 14.5977	 -6.2196	  0.0000
     -3.9300	 14.5968	 14.5968	 -6.2196	  0.0000
     -3.9200	 14.5966	 14.5966	 -6.2196	  0.0000
     -3.9100	 14.5970	 14.5970	 -6.2196	  0.0000
     -3.9000	 14.5979	 14.5979	 -6.2196	  0.0000
     -3.8900	 14.5993	 14.5993	 -6.2196	  0.0000
     -3.8800	 14.6012	 14.6012	 -6.2196	  0.0000
     -3.8700	 14.6035	 14.6035	 -6.2196	  0.0000
     -3.8600	 14.6061	 14.6061	 -6.2196	  0.0000
     -3.8500	 14.6091	 14.6091	 -6.2196	  0.0000
     -3.8400	 14.6124	 14.6124	 -6.2196	  0.0000
     -3.8300	 14.6160	 14.6160	 -6.2196	  0.0000
     -3.8200	 14.6199	 14.6199	 -6.2196	  0.0000
     -3.8100	 14.6241	 14.6241	 -6.2196	  0.0000
     -3.8000	 14.6284	 14.6284	 -6.2196	  0.0000
     -3.7900	 14.6330	 14.6330	 -6.2196	  0.0000
     -3.7800	 14.6378	 14.6378	 -6.2196	  0.0000
     -3.7700	 14.6428	 14.6428	 -6.2196	  0.0000
     -3.7600	 14.6480	 14.6480	 -6.2196	  0.0000
     -3.7500	 14.6534	 14.6534	 -6.2196	  0.0000
     -3.7400	 14.6590	 14.6590	 -6.2196	  0.0000
     -3.7300	 14.6647	 14.6647	 -6.2196	  0.0000
     -3.7200	 14.6705	 14.6705	 -6.2196	  0.0000
     -3.7100	 14.6765	 14.6765	 -6.2196	  0.0000
     -3.7000	 14.6827	 14.6827	 -6.2196	  0.0000
     -3.6900	 14.6890	 14.6890	 -6.2196	  0.0000
     -3.6800	 14.6954	 14.6954	 -6.2196	  0.0000
     -3.6700	 14.7020	 14.7020	 -6.2196	  0.0000
     -3.6600	 14.7087	 14.7087	 -6.2196	  0.0000
     -3.6500	 14.7155	 14.7155	 -6.2196	  0.0000
     -3.6400	 14.7224	 14.7224	 -6.2196	  0.0000
     -3.6300	 14.7295	 14.7295	 -6.2196	  0.0000
     -3.6200	 14.7367	 14.7367	 -6.2196	  0.0000
     -3.6100	 14.7439	 14.7439	 -6.2196	  0.0000
     -3.6000	 14.7513	 14.7513	 -6.2196	  0.0000
     -3.5900	 14.7588	 14.7588	 -6.2196	  0.0000
     -3.5800	 14.7664	 14.7665	 -6.2196	  0.0000
     -3.5700	 14.7742	 14.7742	 -6.2196	  0.0000
     -3.5600	 14.7820	 14.7820	 -6.2196	  0.0000
     -3.5500	 14.7899	 14.7899	 -6.2196	  0.0000
     -3.5400	 14.7980	 14.7980	 -6.2196	  0.0000
     -3.5300	 14.8061	 14.8061	 -6.2196	  0.0000
     -3.5200	 14.8144	 14.8144	 -6.2196	  0.0000
     -3.5100	 14.8227	 14.8227	 -6.2196	  0.0000
     -3.5000	 14.8312	 14.8312	 -6.2196	  0.0000
     -3.4900	 14.8397	 14.8397	 -6.2196	  0.0000
     -3.4800	 14.8484	 14.8484	 -6.2196	  0.0000
     -3.4700	 14.8572	 14.8572	 -6.2196	  0.0000
     -3.4600	 14.8660	 14.8660	 -6.2196	  0.0000
     -3.4500	 14.8750	 14.8750	 -6.2196	  0.0000
     -3.4400	 14.8841	 14.8841	 -6.2196	  0.0000
     -3.4300	 14.8932	 14.8932	 -6.2196	  0.0000
     -3.4200	 14.9025	 14.9025	 -6.2196	  0.0000
     -3.4100	 14.9119	 14.9119	 -6.2196	  0.0000
     -3.4000	 14.9214	 14.9214	 -6.2196	  0.0000
     -3.3900	 14.9309	 14.9309	 -6.2196	  0.0000
     -3.3800	 14.9406	 14.9406	 -6.2196	  0.0000
     -3.3700	 14.9504	 14.9504	 -6.2196	  0.0000
     -3.3600	 14.9603	 14.9603	 -6.2196	  0.0000
     -3.3500	 14.9703	 14.9703	 -6.2196	  0.0000
     -3.3400	 14.9804	 14.9804	 -6.2196	  0.0000
     -3.3300	 14.9906	 14.9906	 -6.2196	  0.0000
     -3.3200	 15.0009	 15.0009	 -6.2196	  0.0000
     -3.3100	 15.0114	 15.0114	 -6.2196	  0.0000
     -3.3000	 15.0219	 15.0219	 -6.2196	  0.0000
     -3.2900	 15.0325	 15.0325	 -6.2196	  0.0000
     -3.2800	 15.0433	 15.0433	 -6.2196	  0.0000
     -3.2700	 15.0541	 15.0542	 -6.2196	  0.0000
     -3.2600	 15.0651	 15.0651	 -6.2196	  0.0000
     -3.2500	 15.0762	 15.0762	 -6.2196	  0.0000
     -3.2400	 15.0874	 15.0874	 -6.2196	  0.0000
     -3.2300	 15.0987	 15.0987	 -6.2196	  0.0000
     -3.2200	 15.1102	 15.1102	 -6.2196	  0.0000
     -3.2100	 15.1217	 15.1217	 -6.2196	  0.0000
     -3.2000	 15.1334	 15.1334	 -6.2196	  0.0000
     -3.1900	 15.1452	 15.1452	 -6.2196	  0.0000
     -3.1800	 15.1571	 15.1571	 -6.2196	  0.0000
     -3.1700	 15.1691	 15.1691	 -6.2196	  0.0000
     -3.1600	 15.1812	 15.1812	 -6.2196	  0.0000
     -3.1500	 15.1935	 15.1935	 -6.2196	  0.0000
     -3.1400	 15.2059	 15.2059	 -6.2196	  0.0000
     -3.1300	 15.2184	 15.2184	 -6.2196	  0.0000
     -3.1200	 15.2310	 15.2310	 -6.2196	  0.0000
     -3.1100	 15.2438	 15.2438	 -6.2196	  0.0000
     -3.1000	 15.2567	 15.2567	 -6.2196	  0.0000
     -3.0900	 15.2697	 15.2698	 -6.2196	  0.0000
     -3.0800	 15.2829	 15.2829	 -6.2196	  0.0000
     -3.0700	 15.2962	 15.2962	 -6.2196	  0.0000
     -3.0600	 15.3096	 15.3096	 -6.2196	  0.0000
     -3.0500	 15.3232	 15.3232	 -6.2196	  0.0000
     -3.0400	 15.3369	 15.3369	 -6.2196	  0.0000
     -3.0300	 15.3508	 15.3508	 -6.2196	  0.0000
     -3.0200	 15.3648	 15.3648	 -6.2196	  0.0000
     -3.0100	 15.3789	 15.3789	 -6.2196	  0.0000
     -3.0000	 15.3932	 15.3932	 -6.2196	  0.0000
     -2.9900	 15.4076	 15.4076	 -6.2196	  0.0000
     -2.9800	 15.4222	 15.4222	 -6.2196	  0.0000
     -2.9700	 15.4369	 15.4369	 -6.2196	  0.0000
     -2.9600	 15.4518	 15.4518	 -6.2196	  0.0000
     -2.9500	 15.4668	 15.4668	 -6.2196	  0.0000
     -2.9400	 15.4820	 15.4820	 -6.2196	  0.0000
     -2.9300	 15.4973	 15.4973	 -6.2196	  0.0000
     -2.9200	 15.5128	 15.5128	 -6.2196	  0.0000
     -2.9100	 15.5285	 15.5285	 -6.2196	  0.0000
     -2.9000	 15.5443	 15.5443	 -6.2196	  0.0000
     -2.8900	 15.5603	 15.5603	 -6.2196	  0.0000
     -2.8800	 15.5765	 15.5765	 -6.2196	  0.0000
     -2.8700	 15.5928	 15.5928	 -6.2196	  0.0000
     -2.8600	 15.6093	 15.6093	 -6.2196	  0.0000
     -2.8500	 15.6260	 15.6260	 -6.2196	  0.0000
     -2.8400	 15.6428	 15.6429	 -6.2196	  0.0000
     -2.8300	 15.6599	 15.6599	 -6.2196	  0.0000
     -2.8200	 15.6771	 15.6771	 -6.2196	  0.0000
     -2.8100	 15.6945	 15.6945	 -6.2196	  0.0000
     -2.8000	 15.7121	 15.7121	 -6.2196	  0.0000
     -2.7900	 15.7298	 15.7299	 -6.2196	  0.0000
     -2.7800	 15.7478	 15.7478	 -6.2196	  0.0000
     -2.7700	 15.7660	 15.7660	 -6.2196	  0.0000
     -2.7600	 15.7843	 15.7843	 -6.2196	  0.0000
     -2.7500	 15.8029	 15.8029	 -6.2196	  0.0000
     -2.7400	 15.8216	 15.8216	 -6.2196	  0.0000
     -2.7300	 15.8406	 15.8406	 -6.2196	  0.0000
     -2.7200	 15.8598	 15.8598	 -6.2196	  0.0000
     -2.7100	 15.8791	 15.8791	 -6.2196	  0.0000
     -2.7000	 15.8987	 15.8987	 -6.2196	  0.0000
     -2.6900	 15.9185	 15.9185	 -6.2196	  0.0000
     -2.6800	 15.9385	 15.9385	 -6.2196	  0.0000
     -2.6700	 15.9588	 15.9588	 -6.2196	  0.0000
     -2.6600	 15.9792	 15.9792	 -6.2196	  0.0000
     -2.6500	 15.9999	 15.9999	 -6.2196	  0.0000
     -2.6400	 16.0208	 16.0208	 -6.2196	  0.0000
     -2.6300	 16.0420	 16.0420	 -6.2196	  0.0000
     -2.6200	 16.0634	 16.0634	 -6.2196	  0.0000
     -2.6100	 16.0850	 16.0850	 -6.2196	  0.0000
     -2.6000	 16.1068	 16.1068	 -6.2196	  0.0000
     -2.5900	 16.1289	 16.1289	 -6.2196	  0.0000
     -2.5800	 16.1513	 16.1513	 -6.2196	  0.0000
     -2.5700	 16.1739	 16.1739	 -6.2196	  0.0000
     -2.5600	 16.1967	 16.1967	 -6.2196	  0.0000
     -2.5500	 16.2198	 16.2198	 -6.2196	  0.0000
     -2.5400	 16.2432	 16.2432	 -6.2196	  0.0000
     -2.5300	 16.2668	 16.2668	 -6.2196	  0.0000
     -2.5200	 16.2907	 16.2907	 -6.2196	  0.0000
     -2.5100	 16.3148	 16.3148	 -6.2196	  0.0000
     -2.5000	 16.3392	 16.3392	 -6.2196	  0.0000
     -2.4900	 16.3639	 16.3639	 -6.2196	  0.0000
     -2.4800	 16.3888	 16.3888	 -6.2196	  0.0000
     -2.4700	 16.4140	 16.4140	 -6.2196	  0.0000
     -2.4600	 16.4395	 16.4395	 -6.2196	  0.0000
     -2.4500	 16.4653	 16.4653	 -6.2196	  0.0000
     -2.4400	 16.4913	 16.4913	 -6.2196	  0.0000
     -2.4300	 16.5176	 16.5176	 -6.2196	  0.0000
     -2.4200	 16.5441	 16.5441	 -6.2196	  0.0000
     -2.4100	 16.5710	 16.5710	 -6.2196	  0.0000
     -2.4000	 16.5981	 16.5981	 -6.2196	  0.0000
     -2.3900	 16.6255	 16.6255	 -6.2196	  0.0000
     -2.3800	 16.6532	 16.6532	 -6.2196	  0.0000
     -2.3700	 16.6811	 16.6811	 -6.2196	  0.0000
     -2.3600	 16.7093	 16.7093	 -6.2196	  0.0000
     -2.3500	 16.7377	 16.7377	 -6.2196	  0.0000
     -2.3400	 16.7664	 16.7664	 -6.2196	  0.0000
     -2.3300	 16.7954	 16.7954	 -6.2196	  0.0000
     -2.3200	 16.8246	 16.8246	 -6.2196	  0.0000
     -2.3100	 16.8540	 16.8540	 -6.2196	  0.0000
     -2.3000	 16.8836	 16.8836	 -6.2196	  0.0000
     -2.2900	 16.9135	 16.9135	 -6.2196	  0.0000
     -2.2800	 16.9436	 16.9436	 -6.2196	  0.0000
     -2.2700	 16.9738	 16.9738	 -6.2196	  0.0000
     -2.2600	 17.0043	 17.0043	 -6.2196	  0.0000
     -2.2500	 17.0349	 17.0349	 -6.2196	  0.0000
     -2.2400	 17.0656	 17.0656	 -6.2196	  0.0000
     -2.2300	 17.0965	 17.0965	 -6.2196	  0.0000
     -2.2200	 17.1274	 17.1274	 -6.2196	  0.0000
     -2.2100	 17.1584	 17.1584	 -6.2196	  0.0000
     -2.2000	 17.1894	 17.1895	 -6.2196	  0.0000
     -2.1900	 17.2205	 17.2205	 -6.2196	  0.0000
     -2.1800	 17.2515	 17.2515	 -6.2196	  0.0000
     -2.1700	 17.2825	 17.2825	 -6.2196	  0.0000
     -2.1600	 17.3133	 17.3133	 -6.2196	  0.0000
     -2.1500	 17.3440	 17.3440	 -6.2196	  0.0000
     -2.1400	 17.3745	 17.3745	 -6.2196	  0.0000
     -2.1300	 17.4047	 17.4047	 -6.2196	  0.0000
     -2.1200	 17.4346	 17.4346	 -6.2196	  0.0000
     -2.1100	 17.4641	 17.4641	 -6.2196	  0.0000
     -2.1000	 17.4932	 17.4932	 -6.2196	  0.0000
     -2.0900	 17.5218	 17.5218	 -6.2196	  0.0000
     -2.0800	 17.5497	 17.5497	 -6.2196	  0.0000
     -2.0700	 17.5770	 17.5770	 -6.2196	  0.0000
     -2.0600	 17.6036	 17.6036	 -6.2196	  0.0000
     -2.0500	 17.6293	 17.6293	 -6.2196	  0.0000
     -2.0400	 17.6541	 17.6541	 -6.2196	  0.0000
     -2.0300	 17.6778	 17.6778	 -6.2196	  0.0000
     -2.0200	 17.7005	 17.7005	 -6.2196	  0.0000
     -2.0100	 17.7220	 17.7220	 -6.2196	  0.0000
     -2.0000	 17.7421	 17.7421	 -6.2196	  0.0000
     -1.9900	 17.7609	 17.7609	 -6.2196	  0.0000
     -1.9800	 17.7782	 17.7783	 -6.2196	  0.0000
     -1.9700	 17.7940	 17.7940	 -6.2196	  0.0000
     -1.9600	 17.8081	 17.8081	 -6.2196	  0.0000
     -1.9500	 17.8205	 17.8205	 -6.2196	  0.0000
     -1.9400	 17.8312	 17.8312	 -6.2196	  0.0000
     -1.9300	 17.8400	 17.8400	 -6.2196	  0.0000
     -1.9200	 17.8468	 17.8469	 -6.2196	  0.0000
     -1.9100	 17.8518	 17.8518	 -6.2196	  0.0000
     -1.9000	 17.8548	 17.8548	 -6.2196	  0.0000
     -1.8900	 17.8559	 17.8559	 -6.2196	  0.0000
     -1.8800	 17.8549	 17.8549	 -6.2196	  0.0000
     -1.8700	 17.8520	 17.8520	 -6.2196	  0.0000
     -1.8600	 17.8472	 17.8472	 -6.2196	  0.0000
     -1.8500	 17.8404	 17.8404	 -6.2196	  0.0000
     -1.8400	 17.8317	 17.8318	 -6.2196	  0.0000
     -1.8300	 17.8213	 17.8213	 -6.2196	  0.0000
     -1.8200	 17.8090	 17.8090	 -6.2196	  0.0000
     -1.8100	 17.7951	 17.7951	 -6.2196	  0.0000
     -1.8000	 17.7795	 17.7795	 -6.2196	  0.0000
     -1.7900	 17.7624	 17.7625	 -6.2196	  0.0000
     -1.7800	 17.7439	 17.7439	 -6.2196	  0.0000
     -1.7700	 17.7240	 17.7240	 -6.2196	  0.0000
     -1.7600	 17.7029	 17.7029	 -6.2196	  0.0000
     -1.7500	 17.6805	 17.6806	 -6.2196	  0.0000
     -1.7400	 17.6571	 17.6572	 -6.2196	  0.0000
     -1.7300	 17.6327	 17.6328	 -6.2196	  0.0000
     -1.7200	 17.6075	 17.6075	 -6.2196	  0.0000
     -1.7100	 17.5814	 17.5814	 -6.2196	  0.0000
     -1.7000	 17.5546	 17.5546	 -6.2196	  0.0000
     -1.6900	 17.5271	 17.5271	 -6.2196	  0.0000
     -1.6800	 17.4991	 17.4991	 -6.2196	  0.0000
     -1.6700	 17.4706	 17.4706	 -6.2196	  0.0000
     -1.6600	 17.4417	 17.4417	 -6.2196	  0.0000
     -1.6500	 17.4124	 17.4124	 -6.2196	  0.0000
     -1.6400	 17.3829	 17.3829	 -6.2196	  0.0000
     -1.6300	 17.3531	 17.3531	 -6.2196	  0.0000
     -1.6200	 17.3232	 17.3232	 -6.2196	  0.0000
     -1.6100	 17.2931	 17.2931	 -6.2196	  0.0000
     -1.6000	 17.2629	 17.2629	 -6.2196	  0.0000
     -1.5900	 17.2327	 17.2327	 -6.2196	  0.0000
     -1.5800	 17.2025	 17.2025	 -6.2196	  0.0000
     -1.5700	 17.1724	 17.1724	 -6.2196	  0.0000
     -1.5600	 17.1423	 17.1423	 -6.2196	  0.0000
     -1.5500	 17.1123	 17.1123	 -6.2196	  0.0000
     -1.5400	 17.0824	 17.0824	 -6.2196	  0.0000
     -1.5300	 17.0527	 17.0527	 -6.2196	  0.0000
     -1.5200	 17.0232	 17.0232	 -6.2196	  0.0000
     -1.5100	 16.9938	 16.9938	 -6.2196	  0.0000
     -1.5000	 16.9647	 16.9647	 -6.2196	  0.0000
     -1.4900	 16.9358	 16.9358	 -6.2196	  0.0000
     -1.4800	 16.9071	 16.9071	 -6.2196	  0.0000
     -1.4700	 16.8787	 16.8787	 -6.2196	  0.0000
     -1.4600	 16.8505	 16.8505	 -6.2196	  0.0000
     -1.4500	 16.8227	 16.8227	 -6.2196	  0.0000
     -1.4400	 16.7950	 16.7951	 -6.2196	  0.0000
     -1.4300	 16.7677	 16.7677	 -6.2196	  0.0000
     -1.4200	 16.7407	 16.7407	 -6.2196	  0.0000
     -1.4100	 16.7140	 16.7140	 -6.2196	  0.0000
     -1.4000	 16.6876	 16.6876	 -6.2196	  0.0000
     -1.3900	 16.6615	 16.6615	 -6.2196	  0.0000
     -1.3800	 16.6357	 16.6357	 -6.2196	  0.0000
     -1.3700	 16.6103	 16.6103	 -6.2196	  0.0000
     -1.3600	 16.5851	 16.5852	 -6.2196	  0.0000
     -1.3500	 16.5603	 16.5603	 -6.2196	  0.0000
     -1.3400	 16.5359	 16.5359	 -6.2196	  0.0000
     -1.3300	 16.5117	 16.5117	 -6.2196	  0.0000
     -1.3200	 16.4879	 16.4879	 -6.2196	  0.0000
     -1.3100	 16.4644	 16.4644	 -6.2196	  0.0000
     -1.3000	 16.4412	 16.4412	 -6.2196	  0.0000
     -1.2900	 16.4183	 16.4183	 -6.2196	  0.0000
     -1.2800	 16.3958	 16.3958	 -6.2196	  0.0000
     -1.2700	 16.3736	 16.3736	 -6.2196	  0.0000
     -1.2600	 16.3518	 16.3518	 -6.2196	  0.0000
     -1.2500	 16.3302	 16.3302	 -6.2196	  0.0000
     -1.2400	 16.3090	 16.3090	 -6.2196	  0.0000
     -1.2300	 16.2882	 16.2882	 -6.2196	  0.0000
     -1.2200	 16.2676	 16.2676	 -6.2196	  0.0000
     -1.2100	 16.2474	 16.2474	 -6.2196	  0.0000
     -1.2000	 16.2275	 16.2275	 -6.2196	  0.0000
     -1.1900	 16.2079	 16.2079	 -6.2196	  0.0000
     -1.1800	 16.1887	 16.1887	 -6.2196	  0.0000
     -1.1700	 16.1697	 16.1697	 -6.2196	  0.0000
     -1.1600	 16.1511	 16.1511	 -6.2196	  0.0000
     -1.1500	 16.1329	 16.1329	 -6.2196	  0.0000
     -1.1400	 16.1149	 16.1149	 -6.2196	  0.0000
     -1.1300	 16.0973	 16.0973	 -6.2196	  0.0000
     -1.1200	 16.0800	 16.0800	 -6.2196	  0.0000
     -1.1100	 16.0630	 16.0630	 -6.2196	  0.0000
     -1.1000	 16.0463	 16.0463	 -6.2196	  0.0000
     -1.0900	 16.0300	 16.0300	 -6.2196	  0.0000
     -1.0800	 16.0139	 16.0139	 -6.2196	  0.0000
     -1.0700	 15.9983	 15.9982	 -6.2196	  0.0000
     -1.0600	 15.9829	 15.9829	 -6.2196	  0.0000
     -1.0500	 15.9678	 15.9678	 -6.2196	  0.0000
     -1.0400	 15.9531	 15.9531	 -6.2196	  0.0000
     -1.0300	 15.9387	 15.9387	 -6.2196	  0.0000
     -1.0200	 15.9246	 15.9246	 -6.2196	  0.0000
     -1.0100	 15.9108	 15.9108	 -6.2196	  0.0000
     -1.0000	 15.8974	 15.8974	 -6.2196	  0.0000
     -0.9900	 15.8843	 15.8843	 -6.2196	  0.0000
     -0.9800	 15.8716	 15.8716	 -6.2196	  0.0000
     -0.9700	 15.8591	 15.8591	 -6.2196	  0.0000
     -0.9600	 15.8470	 15.8470	 -6.2196	  0.0000
     -0.9500	 15.8353	 15.8353	 -6.2196	  0.0000
     -0.9400	 15.8239	 15.8239	 -6.2196	  0.0000
     -0.9300	 15.8128	 15.8128	 -6.2196	  0.0000
     -0.9200	 15.8020	 15.8021	 -6.2196	  0.0000
     -0.9100	 15.7917	 15.7917	 -6.2196	  0.0000
     -0.9000	 15.7816	 15.7816	 -6.2196	  0.0000
     -0.8900	 15.7720	 15.7720	 -6.2196	  0.0000
     -0.8800	 15.7626	 15.7626	 -6.2196	  0.0000
     -0.8700	 15.7537	 15.7537	 -6.2196	  0.0000
     -0.8600	 15.7451	 15.7451	 -6.2196	  0.0000
     -0.8500	 15.7369	 15.7369	 -6.2196	  0.0000
     -0.8400	 15.7291	 15.7291	 -6.2196	  0.0000
     -0.8300	 15.7216	 15.7216	 -6.2196	  0.0000
     -0.8200	 15.7146	 15.7146	 -6.2196	  0.0000
     -0.8100	 15.7079	 15.7079	 -6.2196	  0.0000
     -0.8000	 15.7016	 15.7016	 -6.2196	  0.0000
     -0.7900	 15.6958	 15.6958	 -6.2196	  0.0000
     -0.7800	 15.6903	 15.6903	 -6.2196	  0.0000
     -0.7700	 15.6853	 15.6853	 -6.2196	  0.0000
     -0.7600	 15.6808	 15.6808	 -6.2196	  0.0000
     -0.7500	 15.6766	 15.6766	 -6.2196	  0.0000
     -0.7400	 15.6729	 15.6729	 -6.2196	  0.0000
     -0.7300	 15.6697	 15.6697	 -6.2196	  0.0000
     -0.7200	 15.6670	 15.6670	 -6.2196	  0.0000
     -0.7100	 15.6647	 15.6647	 -6.2196	  0.0000
     -0.7000	 15.6630	 15.6629	 -6.2196	  0.0000
     -0.6900	 15.6617	 15.6617	 -6.2196	  0.0000
     -0.6800	 15.6610	 15.6610	 -6.2196	  0.0000
     -0.6700	 15.6608	 15.6608	 -6.2196	  0.0000
     -0.6600	 15.6611	 15.6611	 -6.2196	  0.0000
     -0.6500	 15.6620	 15.6620	 -6.2196	  0.0000
     -0.6400	 15.6635	 15.6635	 -6.2196	  0.0000
     -0.6300	 15.6657	 15.6656	 -6.2196	  0.0000
     -0.6200	 15.6684	 15.6684	 -6.2196	  0.0000
     -0.6100	 15.6717	 15.6717	 -6.2196	  0.0000
     -0.6000	 15.6758	 15.6758	 -6.2196	  0.0000
     -0.5900	 15.6805	 15.6805	 -6.2196	  0.0000
     -0.5800	 15.6859	 15.6859	 -6.2196	  0.0000
     -0.5700	 15.6920	 15.6920	 -6.2196	  0.0000
     -0.5600	 15.6989	 15.6989	 -6.2196	  0.0000
     -0.5500	 15.7066	 15.7066	 -6.2196	  0.0000
     -0.5400	 15.7151	 15.7151	 -6.2196	  0.0000
     -0.5300	 15.7245	 15.7245	 -6.2196	  0.0000
     -0.5200	 15.7347	 15.7347	 -6.2196	  0.0000
     -0.5100	 15.7459	 15.7459	 -6.2196	  0.0000
     -0.5000	 15.7580	 15.7580	 -6.2196	  0.0000
     -0.4900	 15.7711	 15.7711	 -6.2196	  0.0000
     -0.4800	 15.7852	 15.7852	 -6.2196	  0.0000
     -0.4700	 15.8004	 15.8004	 -6.2196	  0.0000
     -0.4600	 15.8168	 15.8167	 -6.2196	  0.0000
     -0.4500	 15.8343	 15.8343	 -6.2196	  0.0000
     -0.4400	 15.8531	 15.8530	 -6.2196	  0.0000
     -0.4300	 15.8731	 15.8731	 -6.2196	  0.0000
     -0.4200	 15.8945	 15.8945	 -6.2196	  0.0000
     -0.4100	 15.9173	 15.9173	 -6.2196	  0.0000
     -0.4000	 15.9416	 15.9416	 -6.2196	  0.0000
     -0.3900	 15.9675	 15.9675	 -6.2196	  0.0000
     -0.3800	 15.9950	 15.9950	 -6.2196	  0.0000
     -0.3700	 16.0243	 16.0243	 -6.2196	  0.0000
     -0.3600	 16.0554	 16.0554	 -6.2196	  0.0000
     -0.3500	 16.0884	 16.0884	 -6.2196	  0.0000
     -0.3400	 16.1235	 16.1235	 -6.2196	  0.0000
     -0.3300	 16.1607	 16.1607	 -6.2196	  0.0000
     -0.3200	 16.2003	 16.2002	 -6.2196	  0.0000
     -0.3100	 16.2423	 16.2422	 -6.2196	  0.0000
     -0.3000	 16.2868	 16.2868	 -6.2196	  0.0000
     -0.2900	 16.3341	 16.3341	 -6.2196	  0.0000
     -0.2800	 16.3844	 16.3843	 -6.2196	  0.0000
     -0.2700	 16.4378	 16.4377	 -6.2196	  0.0000
     -0.2600	 16.4946	 16.4945	 -6.2196	  0.0000
     -0.2500	 16.5550	 16.5549	 -6.2196	  0.0000
     -0.2400	 16.6192	 16.6192	 -6.2196	  0.0000
     -0.2300	 16.6877	 16.6877	 -6.2196	  0.0000
     -0.2200	 16.7608	 16.7607	 -6.2196	  0.0000
     -0.2100	 16.8388	 16.8388	 -6.2196	  0.0000
     -0.2000	 16.9223	 16.9222	 -6.2196	  0.0000
     -0.1900	 17.0117	 17.0116	 -6.2196	  0.0000
     -0.1800	 17.1076	 17.1076	 -6.2196	  0.0000
     -0.1700	 17.2108	 17.2108	 -6.2196	  0.0000
     -0.1600	 17.3222	 17.3221	 -6.2196	  0.0000
     -0.1500	 17.4426	 17.4426	 -6.2196	  0.0000
     -0.1400	 17.5734	 17.5734	 -6.2196	  0.0000
     -0.1300	 17.7160	 17.7160	 -6.2196	  0.0000
     -0.1200	 17.8724	 17.8723	 -6.2196	  0.0000
     -0.1100	 18.0448	 18.0448	 -6.2196	  0.0000
     -0.1000	 18.2364	 18.2364	 -6.2196	  0.0000
     -0.0900	 18.4513	 18.4513	 -6.2196	  0.0000
     -0.0800	 18.6953	 18.6952	 -6.2196	  0.0000
     -0.0700	 18.9764	 18.9763	 -6.2195	  0.0000
     -0.0600	 19.3071	 19.3071	 -6.2196	  0.0000
     -0.0500	 19.7076	 19.7075	 -6.2195	  0.0000
     -0.0400	 20.2138	 20.2138	 -6.2195	  0.0000
     -0.0300	 20.9019	 20.9019	 -6.2195	  0.0000
     -0.0200	 21.9885	 21.9884	 -6.2195	  0.0000
     -0.0100	 24.8784	 24.8784	 -6.2196	  0.0000
      0.0000	 24.8784	 24.8785	 -6.2197	  0.0000
      0.0100	 21.9885	 21.9885	 -6.2196	  0.0000
      0.0200	 20.9019	 20.9019	 -6.2196	  0.0000
      0.0300	 20.2138	 20.2138	 -6.2196	  0.0000
      0.0400	 19.7075	 19.7075	 -6.2196	  0.0000
      0.0500	 19.3071	 19.3070	 -6.2196	  0.0000
      0.0600	 18.9763	 18.9762	 -6.2196	  0.0000
      0.0700	 18.6951	 18.6950	 -6.2196	  0.0000
      0.0800	 18.4510	 18.4510	 -6.2196	  0.0000
      0.0900	 18.2360	 18.2360	 -6.2196	  0.0000
      0.1000	 18.0443	 18.0442	 -6.2196	  0.0000
      0.1100	 17.8717	 17.8716	 -6.2196	  0.0000
      0.1200	 17.7151	 17.7151	 -6.2196	  0.0000
      0.1300	 17.5723	 17.5722	 -6.2196	  0.0000
      0.1400	 17.4412	 17.4412	 -6.2196	  0.0000
      0.1500	 17.3205	 17.3204	 -6.2196	  0.0000
      0.1600	 17.2088	 17.2087	 -6.2196	  0.0000
      0.1700	 17.1052	 17.1052	 -6.2196	  0.0000
      0.1800	 17.0089	 17.0088	 -6.2196	  0.0000
      0.1900	 16.9190	 16.9190	 -6.2196	  0.0000
      0.2000	 16.8351	 16.8351	 -6.2196	  0.0000
      0.2100	 16.7566	 16.7565	 -6.2196	  0.0000
      0.2200	 16.6830	 16.6829	 -6.2196	  0.0000
      0.2300	 16.6139	 16.6138	 -6.2196	  0.0000
      0.2400	 16.5490	 16.5489	 -6.2196	  0.0000
      0.2500	 16.4879	 16.4879	 -6.2196	  0.0000
      0.2600	 16.4305	 16.4304	 -6.2196	  0.0000
      0.2700	 16.3764	 16.3763	 -6.2196	  0.0000
      0.2800	 16.3254	 16.3253	 -6.2196	  0.0000
      0.2900	 16.2773	 16.2772	 -6.2196	  0.0000
      0.3000	 16.2319	 16.2319	 -6.2196	  0.0000
      0.3100	 16.1891	 16.1891	 -6.2196	  0.0000
      0.3200	 16.1487	 16.1487	 -6.2196	  0.0000
      0.3300	 16.1106	 16.1105	 -6.2196	  0.0000
      0.3400	 16.0746	 16.0745	 -6.2196	  0.0000
      0.3500	 16.0406	 16.0406	 -6.2196	  0.0000
      0.3600	 16.0085	 16.0085	 -6.2196	  0.0000
      0.3700	 15.9783	 15.9782	 -6.2196	  0.0000
      0.3800	 15.9497	 15.9497	 -6.2196	  0.0000
      0.3900	 15.9228	 15.9228	 -6.2196	  0.0000
      0.4000	 15.8975	 15.8974	 -6.2196	  0.0000
      0.4100	 15.8736	 15.8736	 -6.2196	  0.0000
      0.4200	 15.8511	 15.8511	 -6.2196	  0.0000
      0.4300	 15.8300	 15.8299	 -6.2196	  0.0000
      0.4400	 15.8101	 15.8101	 -6.2196	  0.0000
      0.4500	 15.7915	 15.7914	 -6.2196	  0.0000
      0.4600	 15.7740	 15.7740	 -6.2196	  0.0000
      0.4700	 15.7577	 15.7576	 -6.2196	  0.0000
      0.4800	 15.7424	 15.7423	 -6.2196	  0.0000
      0.4900	 15.7281	 15.7281	 -6.2196	  0.0000
      0.5000	 15.7149	 15.7148	 -6.2196	  0.0000
      0.5100	 15.7025	 15.7025	 -6.2196	  0.0000
      0.5200	 15.6911	 15.6911	 -6.2196	  0.0000
      0.5300	 15.6806	 15.6806	 -6.2196	  0.0000
      0.5400	 15.6709	 15.6709	 -6.2196	  0.0000
      0.5500	 15.6620	 15.6620	 -6.2196	  0.0000
      0.5600	 15.6539	 15.6539	 -6.2196	  0.0000
      0.5700	 15.6466	 15.6466	 -6.2196	  0.0000
      0.5800	 15.6400	 15.6400	 -6.2196	  0.0000
      0.5900	 15.6341	 15.6341	 -6.2196	  0.0000
      0.6000	 15.6289	 15.6289	 -6.2196	  0.0000
      0.6100	 15.6243	 15.6243	 -6.2196	  0.0000
      0.6200	 15.6204	 15.6204	 -6.2196	  0.0000
      0.6300	 15.6171	 15.6171	 -6.2196	  0.0000
      0.6400	 15.6145	 15.6144	 -6.2196	  0.0000
      0.6500	 15.6124	 15.6123	 -6.2196	  0.0000
      0.6600	 15.6108	 15.6108	 -6.2196	  0.0000
      0.6700	 15.6099	 15.6099	 -6.2196	  0.0000
      0.6800	 15.6095	 15.6094	 -6.2196	  0.0000
      0.6900	 15.6096	 15.6095	 -6.2196	  0.0000
      0.7000	 15.6102	 15.6102	 -6.2196	  0.0000
      0.7100	 15.6113	 15.6113	 -6.2196	  0.0000
      0.7200	 15.6129	 15.6129	 -6.2196	  0.0000
      0.7300	 15.6150	 15.6150	 -6.2196	  0.0000
      0.7400	 15.6176	 15.6176	 -6.2196	  0.0000
      0.7500	 15.6206	 15.6206	 -6.2196	  0.0000
      0.7600	 15.6241	 15.6240	 -6.2196	  0.0000
      0.7700	 15.6280	 15.6280	 -6.2196	  0.0000
      0.7800	 15.6323	 15.6323	 -6.2196	  0.0000
      0.7900	 15.6371	 15.6371	 -6.2196	  0.0000
      0.8000	 15.6423	 15.6423	 -6.2196	  0.0000
      0.8100	 15.6479	 15.6479	 -6.2196	  0.0000
      0.8200	 15.6539	 15.6539	 -6.2196	  0.0000
      0.8300	 15.6603	 15.6603	 -6.2196	  0.0000
      0.8400	 15.6671	 15.6671	 -6.2196	  0.0000
      0.8500	 15.6743	 15.6743	 -6.2196	  0.0000
      0.8600	 15.6819	 15.6819	 -6.2196	  0.0000
      0.8700	 15.6898	 15.6898	 -6.2196	  0.0000
      0.8800	 15.6981	 15.6981	 -6.2196	  0.0000
      0.8900	 15.7068	 15.7068	 -6.2196	  0.0000
      0.9000	 15.7159	 15.7159	 -6.2196	  0.0000
      0.9100	 15.7253	 15.7253	 -6.2196	  0.0000
      0.9200	 15.7351	 15.7351	 -6.2196	  0.0000
      0.9300	 15.7452	 15.7452	 -6.2196	  0.0000
      0.9400	 15.7557	 15.7557	 -6.2196	  0.0000
      0.9500	 15.7666	 15.7666	 -6.2196	  0.0000
      0.9600	 15.7778	 15.7778	 -6.2196	  0.0000
      0.9700	 15.7893	 15.7893	 -6.2196	  0.0000
      0.9800	 15.8012	 15.8012	 -6.2196	  0.0000
      0.9900	 15.8134	 15.8134	 -6.2196	  0.0000
      1.0000	 15.8259	 15.8260	 -6.2196	  0.0000
      1.0100	 15.8389	 15.8389	 -6.2196	  0.0000
      1.0200	 15.8521	 15.8521	 -6.2196	  0.0000
      1.0300	 15.8657	 15.8657	 -6.2196	  0.0000
      1.0400	 15.8796	 15.8796	 -6.2196	  0.0000
      1.0500	 15.8938	 15.8938	 -6.2196	  0.0000
      1.0600	 15.9084	 15.9084	 -6.2196	  0.0000
      1.0700	 15.9233	 15.9233	 -6.2196	  0.0000
      1.0800	 15.9386	 15.9386	 -6.2196	  0.0000
      1.0900	 15.9542	 15.9542	 -6.2196	  0.0000
      1.1000	 15.9701	 15.9701	 -6.2196	  0.0000
      1.1100	 15.9863	 15.9863	 -6.2196	  0.0000
      1.1200	 16.0029	 16.0029	 -6.2196	  0.0000
      1.1300	 16.0198	 16.0198	 -6.2196	  0.0000
      1.1400	 16.0371	 16.0371	 -6.2196	  0.0000
      1.1500	 16.0547	 16.0547	 -6.2196	  0.0000
      1.1600	 16.0726	 16.0726	 -6.2196	  0.0000
      1.1700	 16.0908	 16.0908	 -6.2196	  0.0000
      1.1800	 16.1094	 16.1094	 -6.2196	  0.0000
      1.1900	 16.1283	 16.1283	 -6.2196	  0.0000
      1.2000	 16.1476	 16.1476	 -6.2196	  0.0000
      1.2100	 16.1672	 16.1672	 -6.2196	  0.0000
      1.2200	 16.1871	 16.1871	 -6.2196	  0.0000
      1.2300	 16.2074	 16.2074	 -6.2196	  0.0000
      1.2400	 16.2280	 16.2280	 -6.2196	  0.0000
      1.2500	 16.2490	 16.2490	 -6.2196	  0.0000
      1.2600	 16.2703	 16.2703	 -6.2196	  0.0000
      1.2700	 16.2919	 16.2919	 -6.2196	  0.0000
      1.2800	 16.3138	 16.3138	 -6.2196	  0.0000
      1.2900	 16.3361	 16.3362	 -6.2196	  0.0000
      1.3000	 16.3588	 16.3588	 -6.2196	  0.0000
      1.3100	 16.3818	 16.3818	 -6.2196	  0.0000
      1.3200	 16.4051	 16.4051	 -6.2196	  0.0000
      1.3300	 16.4288	 16.4288	 -6.2196	  0.0000
      1.3400	 16.4528	 16.4528	 -6.2196	  0.0000
      1.3500	 16.4771	 16.4771	 -6.2196	  0.0000
      1.3600	 16.5018	 16.5018	 -6.2196	  0.0000
      1.3700	 16.5268	 16.5268	 -6.2196	  0.0000
      1.3800	 16.5521	 16.5521	 -6.2196	  0.0000
      1.3900	 16.5778	 16.5778	 -6.2196	  0.0000
      1.4000	 16.6037	 16.6037	 -6.2196	  0.0000
      1.4100	 16.6300	 16.6300	 -6.2196	  0.0000
      1.4200	 16.6566	 16.6566	 -6.2196	  0.0000
      1.4300	 16.6835	 16.6836	 -6.2196	  0.0000
      1.4400	 16.7108	 16.7108	 -6.2196	  0.0000
      1.4500	 16.7383	 16.7383	 -6.2196	  0.0000
      1.4600	 16.7661	 16.7661	 -6.2196	  0.0000
      1.4700	 16.7941	 16.7941	 -6.2196	  0.0000
      1.4800	 16.8225	 16.8225	 -6.2196	  0.0000
      1.4900	 16.8510	 16.8510	 -6.2196	  0.0000
      1.5000	 16.8798	 16.8798	 -6.2196	  0.0000
      1.5100	 16.9089	 16.9089	 -6.2196	  0.0000
      1.5200	 16.9381	 16.9381	 -6.2196	  0.0000
      1.5300	 16.9675	 16.9675	 -6.2196	  0.0000
      1.5400	 16.9971	 16.9971	 -6.2196	  0.0000
      1.5500	 17.0268	 17.0268	 -6.2196	  0.0000
      1.5600	 17.0566	 17.0566	 -6.2196	  0.0000
      1.5700	 17.0865	 17.0865	 -6.2196	  0.0000
      1.5800	 17.1164	 17.1165	 -6.2196	  0.0000
      1.5900	 17.1464	 17.1464	 -6.2196	  0.0000
      1.6000	 17.1763	 17.1763	 -6.2196	  0.0000
      1.6100	 17.2062	 17.2062	 -6.2196	  0.0000
      1.6200	 17.2359	 17.2359	 -6.2196	  0.0000
      1.6300	 17.2655	 17.2655	 -6.2196	  0.0000
      1.6400	 17.2948	 17.2948	 -6.2196	  0.0000
      1.6500	 17.3239	 17.3239	 -6.2196	  0.0000
      1.6600	 17.3526	 17.3526	 -6.2196	  0.0000
      1.6700	 17.3810	 17.3810	 -6.2196	  0.0000
      1.6800	 17.4088	 17.4088	 -6.2196	  0.0000
      1.6900	 17.4361	 17.4361	 -6.2196	  0.0000
      1.7000	 17.4627	 17.4627	 -6.2196	  0.0000
      1.7100	 17.4887	 17.4887	 -6.2196	  0.0000
      1.7200	 17.5138	 17.5138	 -6.2196	  0.0000
      1.7300	 17.5381	 17.5381	 -6.2196	  0.0000
      1.7400	 17.5614	 17.5614	 -6.2196	  0.0000
      1.7500	 17.5836	 17.5836	 -6.2196	  0.0000
      1.7600	 17.6047	 17.6047	 -6.2196	  0.0000
      1.7700	 17.6245	 17.6245	 -6.2196	  0.0000
      1.7800	 17.6429	 17.6429	 -6.2196	  0.0000
      1.7900	 17.6599	 17.6599	 -6.2196	  0.0000
      1.8000	 17.6754	 17.6754	 -6.2196	  0.0000
      1.8100	 17.6893	 17.6893	 -6.2196	  0.0000
      1.8200	 17.7014	 17.7014	 -6.2196	  0.0000
      1.8300	 17.7119	 17.7119	 -6.2196	  0.0000
      1.8400	 17.7205	 17.7205	 -6.2196	  0.0000
      1.8500	 17.7272	 17.7272	 -6.2196	  0.0000
      1.8600	 17.7320	 17.7321	 -6.2196	  0.0000
      1.8700	 17.7349	 17.7349	 -6.2196	  0.0000
      1.8800	 17.7359	 17.7359	 -6.2196	  0.0000
      1.8900	 17.7348	 17.7348	 -6.2196	  0.0000
      1.9000	 17.7318	 17.7318	 -6.2196	  0.0000
      1.9100	 17.7268	 17.7268	 -6.2196	  0.0000
      1.9200	 17.7199	 17.7200	 -6.2196	  0.0000
      1.9300	 17.7112	 17.7112	 -6.2196	  0.0000
      1.9400	 17.7006	 17.7006	 -6.2196	  0.0000
      1.9500	 17.6882	 17.6882	 -6.2196	  0.0000
      1.9600	 17.6741	 17.6741	 -6.2196	  0.0000
      1.9700	 17.6584	 17.6584	 -6.2196	  0.0000
      1.9800	 17.6411	 17.6412	 -6.2196	  0.0000
      1.9900	 17.6224	 17.6224	 -6.2196	  0.0000
      2.0000	 17.6023	 17.6023	 -6.2196	  0.0000
      2.0100	 17.5809	 17.5809	 -6.2196	  0.0000
      2.0200	 17.5583	 17.5583	 -6.2196	  0.0000
      2.0300	 17.5347	 17.5347	 -6.2196	  0.0000
      2.0400	 17.5100	 17.5100	 -6.2196	  0.0000
      2.0500	 17.4844	 17.4844	 -6.2196	  0.0000
      2.0600	 17.4579	 17.4579	 -6.2196	  0.0000
      2.0700	 17.4307	 17.4307	 -6.2196	  0.0000
      2.0800	 17.4029	 17.4029	 -6.2196	  0.0000
      2.0900	 17.3744	 17.3744	 -6.2196	  0.0000
      2.1000	 17.3455	 17.3455	 -6.2196	  0.0000
      2.1100	 17.3161	 17.3161	 -6.2196	  0.0000
      2.1200	 17.2864	 17.2864	 -6.2196	  0.0000
      2.1300	 17.2563	 17.2563	 -6.2196	  0.0000
      2.1400	 17.2260	 17.2260	 -6.2196	  0.0000
      2.1500	 17.1954	 17.1954	 -6.2196	  0.0000
      2.1600	 17.1647	 17.1648	 -6.2196	  0.0000
      2.1700	 17.1340	 17.1340	 -6.2196	  0.0000
      2.1800	 17.1031	 17.1031	 -6.2196	  0.0000
      2.1900	 17.0723	 17.0723	 -6.2196	  0.0000
      2.2000	 17.0414	 17.0414	 -6.2196	  0.0000
      2.2100	 17.0106	 17.0106	 -6.2196	  0.0000
      2.2200	 16.9798	 16.9798	 -6.2196	  0.0000
      2.2300	 16.9492	 16.9492	 -6.2196	  0.0000
      2.2400	 16.9187	 16.9187	 -6.2196	  0.0000
      2.2500	 16.8883	 16.8883	 -6.2196	  0.0000
      2.2600	 16.8581	 16.8581	 -6.2196	  0.0000
      2.2700	 16.8280	 16.8280	 -6.2196	  0.0000
      2.2800	 16.7982	 16.7982	 -6.2196	  0.0000
      2.2900	 16.7686	 16.7686	 -6.2196	  0.0000
      2.3000	 16.7392	 16.7392	 -6.2196	  0.0000
      2.3100	 16.7100	 16.7100	 -6.2196	  0.0000
      2.3200	 16.6810	 16.6810	 -6.2196	  0.0000
      2.3300	 16.6523	 16.6524	 -6.2196	  0.0000
      2.3400	 16.6239	 16.6239	 -6.2196	  0.0000
      2.3500	 16.5957	 16.5957	 -6.2196	  0.0000
      2.3600	 16.5678	 16.5678	 -6.2196	  0.0000
      2.3700	 16.5402	 16.5402	 -6.2196	  0.0000
      2.3800	 16.5128	 16.5128	 -6.2196	  0.0000
      2.3900	 16.4857	 16.4857	 -6.2196	  0.0000
      2.4000	 16.4589	 16.4589	 -6.2196	  0.0000
      2.4100	 16.4324	 16.4324	 -6.2196	  0.0000
      2.4200	 16.4061	 16.4061	 -6.2196	  0.0000
      2.4300	 16.3801	 16.3801	 -6.2196	  0.0000
      2.4400	 16.3544	 16.3544	 -6.2196	  0.0000
      2.4500	 16.3290	 16.3290	 -6.2196	  0.0000
      2.4600	 16.3038	 16.3038	 -6.2196	  0.0000
      2.4700	 16.2789	 16.2790	 -6.2196	  0.0000
      2.4800	 16.2544	 16.2544	 -6.2196	  0.0000
      2.4900	 16.2300	 16.2300	 -6.2196	  0.0000
      2.5000	 16.2060	 16.2060	 -6.2196	  0.0000
      2.5100	 16.1822	 16.1822	 -6.2196	  0.0000
      2.5200	 16.1587	 16.1587	 -6.2196	  0.0000
      2.5300	 16.1354	 16.1354	 -6.2196	  0.0000
      2.5400	 16.1125	 16.1125	 -6.2196	  0.0000
      2.5500	 16.0897	 16.0897	 -6.2196	  0.0000
      2.5600	 16.0673	 16.0673	 -6.2196	  0.0000
      2.5700	 16.0451	 16.0451	 -6.2196	  0.0000
      2.5800	 16.0231	 16.0231	 -6.2196	  0.0000
      2.5900	 16.0014	 16.0014	 -6.2196	  0.0000
      2.6000	 15.9800	 15.9800	 -6.2196	  0.0000
      2.6100	 15.9588	 15.9588	 -6.2196	  0.0000
      2.6200	 15.9378	 15.9378	 -6.2196	  0.0000
      2.6300	 15.9171	 15.9171	 -6.2196	  0.0000
      2.6400	 15.8966	 15.8966	 -6.2196	  0.0000
      2.6500	 15.8763	 15.8763	 -6.2196	  0.0000
      2.6600	 15.8563	 15.8563	 -6.2196	  0.0000
      2.6700	 15.8365	 15.8365	 -6.2196	  0.0000
      2.6800	 15.8170	 15.8170	 -6.2196	  0.0000
      2.6900	 15.7976	 15.7976	 -6.2196	  0.0000
      2.7000	 15.7785	 15.7785	 -6.2196	  0.0000
      2.7100	 15.7596	 15.7596	 -6.2196	  0.0000
      2.7200	 15.7409	 15.7409	 -6.2196	  0.0000
      2.7300	 15.7224	 15.7224	 -6.2196	  0.0000
      2.7400	 15.7042	 15.7042	 -6.2196	  0.0000
      2.7500	 15.6861	 15.6861	 -6.2196	  0.0000
      2.7600	 15.6683	 15.6683	 -6.2196	  0.0000
      2.7700	 15.6506	 15.6506	 -6.2196	  0.0000
      2.7800	 15.6332	 15.6332	 -6.2196	  0.0000
      2.7900	 15.6159	 15.6160	 -6.2196	  0.0000
      2.8000	 15.5989	 15.5989	 -6.2196	  0.0000
      2.8100	 15.5820	 15.5821	 -6.2196	  0.0000
      2.8200	 15.5654	 15.5654	 -6.2196	  0.0000
      2.8300	 15.5489	 15.5489	 -6.2196	  0.0000
      2.8400	 15.5326	 15.5326	 -6.2196	  0.0000
      2.8500	 15.5165	 15.5165	 -6.2196	  0.0000
      2.8600	 15.5006	 15.5006	 -6.2196	  0.0000
      2.8700	 15.4848	 15.4849	 -6.2196	  0.0000
      2.8800	 15.4693	 15.4693	 -6.2196	  0.0000
      2.8900	 15.4539	 15.4539	 -6.2196	  0.0000
      2.9000	 15.4387	 15.4387	 -6.2196	  0.0000
      2.9100	 15.4237	 15.4237	 -6.2196	  0.0000
      2.9200	 15.4088	 15.4088	 -6.2196	  0.0000
      2.9300	 15.3941	 15.3941	 -6.2196	  0.0000
      2.9400	 15.3796	 15.3796	 -6.2196	  0.0000
      2.9500	 15.3652	 15.3652	 -6.2196	  0.0000
      2.9600	 15.3510	 15.3510	 -6.2196	  0.0000
      2.9700	 15.3370	 15.3370	 -6.2196	  0.0000
      2.9800	 15.3231	 15.3231	 -6.2196	  0.0000
      2.9900	 15.3094	 15.3094	 -6.2196	  0.0000
      3.0000	 15.2958	 15.2958	 -6.2196	  0.0000
      3.0100	 15.2824	 15.2824	 -6.2196	  0.0000
      3.0200	 15.2692	 15.2692	 -6.2196	  0.0000
      3.0300	 15.2561	 15.2561	 -6.2196	  0.0000
      3.0400	 15.2432	 15.2432	 -6.2196	  0.0000
      3.0500	 15.2304	 15.2304	 -6.2196	  0.0000
      3.0600	 15.2177	 15.2178	 -6.2196	  0.0000
      3.0700	 15.2053	 15.2053	 -6.2196	  0.0000
      3.0800	 15.1929	 15.1929	 -6.2196	  0.0000
      3.0900	 15.1807	 15.1808	 -6.2196	  0.0000
      3.1000	 15.1687	 15.1687	 -6.2196	  0.0000
      3.1100	 15.1568	 15.1568	 -6.2196	  0.0000
      3.1200	 15.1451	 15.1451	 -6.2196	  0.0000
      3.1300	 15.1335	 15.1335	 -6.2196	  0.0000
      3.1400	 15.1220	 15.1220	 -6.2196	  0.0000
      3.1500	 15.1107	 15.1107	 -6.2196	  0.0000
      3.1600	 15.0995	 15.0995	 -6.2196	  0.0000
      3.1700	 15.0885	 15.0885	 -6.2196	  0.0000
      3.1800	 15.0776	 15.0776	 -6.2196	  0.0000
      3.1900	 15.0669	 15.0669	 -6.2196	  0.0000
      3.2000	 15.0563	 15.0563	 -6.2196	  0.0000
      3.2100	 15.0458	 15.0458	 -6.2196	  0.0000
      3.2200	 15.0355	 15.0355	 -6.2196	  0.0000
      3.2300	 15.0253	 15.0253	 -6.2196	  0.0000
      3.2400	 15.0153	 15.0153	 -6.2196	  0.0000
      3.2500	 15.0054	 15.0054	 -6.2196	  0.0000
      3.2600	 14.9956	 14.9956	 -6.2196	  0.0000
      3.2700	 14.9860	 14.9860	 -6.2196	  0.0000
      3.2800	 14.9765	 14.9765	 -6.2196	  0.0000
      3.2900	 14.9672	 14.9672	 -6.2196	  0.0000
      3.3000	 14.9580	 14.9580	 -6.2196	  0.0000
      3.3100	 14.9489	 14.9490	 -6.2196	  0.0000
      3.3200	 14.9401	 14.9401	 -6.2196	  0.0000
      3.3300	 14.9313	 14.9313	 -6.2196	  0.0000
      3.3400	 14.9227	 14.9227	 -6.2196	  0.0000
      3.3500	 14.9143	 14.9143	 -6.2196	  0.0000
      3.3600	 14.9059	 14.9060	 -6.2196	  0.0000
      3.3700	 14.8978	 14.8978	 -6.2196	  0.0000
      3.3800	 14.8898	 14.8898	 -6.2196	  0.0000
      3.3900	 14.8820	 14.8820	 -6.2196	  0.0000
      3.4000	 14.8743	 14.8743	 -6.2196	  0.0000
      3.4100	 14.8667	 14.8668	 -6.2196	  0.0000
      3.4200	 14.8594	 14.8594	 -6.2196	  0.0000
      3.4300	 14.8522	 14.8522	 -6.2196	  0.0000
      3.4400	 14.8452	 14.8452	 -6.2196	  0.0000
      3.4500	 14.8383	 14.8383	 -6.2196	  0.0000
      3.4600	 14.8316	 14.8316	 -6.2196	  0.0000
      3.4700	 14.8251	 14.8251	 -6.2196	  0.0000
      3.4800	 14.8188	 14.8188	 -6.2196	  0.0000
      3.4900	 14.8127	 14.8127	 -6.2196	  0.0000
      3.5000	 14.8067	 14.8067	 -6.2196	  0.0000
      3.5100	 14.8010	 14.8010	 -6.2196	  0.0000
      3.5200	 14.7955	 14.7955	 -6.2196	  0.0000
      3.5300	 14.7901	 14.7901	 -6.2196	  0.0000
      3.5400	 14.7850	 14.7850	 -6.2196	  0.0000
      3.5500	 14.7802	 14.7802	 -6.2196	  0.0000
      3.5600	 14.7755	 14.7755	 -6.2196	  0.0000
      3.5700	 14.7711	 14.7711	 -6.2196	  0.0000
      3.5800	 14.7669	 14.7669	 -6.2196	  0.0000
      3.5900	 14.7630	 14.7630	 -6.2196	  0.0000
      3.6000	 14.7594	 14.7594	 -6.2196	  0.0000
      3.6100	 14.7561	 14.7561	 -6.2196	  0.0000
      3.6200	 14.7530	 14.7530	 -6.2196	  0.0000
      3.6300	 14.7502	 14.7503	 -6.2196	  0.0000
      3.6400	 14.7478	 14.7478	 -6.2196	  0.0000
      3.6500	 14.7458	 14.7458	 -6.2196	  0.0000
      3.6600	 14.7440	 14.7440	 -6.2196	  0.0000
      3.6700	 14.7427	 14.7427	 -6.2196	  0.0000
      3.6800	 14.7417	 14.7417	 -6.2196	  0.0000
      3.6900	 14.7412	 14.7412	 -6.2196	  0.0000
      3.7000	 14.7411	 14.7411	 -6.2196	  0.0000
      3.7100	 14.7414	 14.7414	 -6.2196	  0.0000
      3.7200	 14.7423	 14.7423	 -6.2196	  0.0000
      3.7300	 14.7437	 14.7437	 -6.2196	  0.0000
      3.7400	 14.7456	 14.7456	 -6.2196	  0.0000
      3.7500	 14.7482	 14.7482	 -6.2196	  0.0000
      3.7600	 14.7514	 14.7514	 -6.2196	  0.0000
      3.7700	 14.7552	 14.7552	 -6.2196	  0.0000
      3.7800	 14.7598	 14.7598	 -6.2196	  0.0000
      3.7900	 14.7651	 14.7651	 -6.2196	  0.0000
      3.8000	 14.7713	 14.7713	 -6.2196	  0.0000
      3.8100	 14.7784	 14.7784	 -6.2196	  0.0000
      3.8200	 14.7864	 14.7864	 -6.2196	  0.0000
      3.8300	 14.7954	 14.7954	 -6.2196	  0.0000
      3.8400	 14.8056	 14.8056	 -6.2196	  0.0000
      3.8500	 14.8169	 14.8169	 -6.2196	  0.0000
      3.8600	 14.8295	 14.8295	 -6.2196	  0.0000
      3.8700	 14.8435	 14.8435	 -6.2196	  0.0000
      3.8800	 14.8590	 14.8590	 -6.2196	  0.0000
      3.8900	 14.8760	 14.8761	 -6.2196	  0.0000
      3.9000	 14.8948	 14.8948	 -6.2196	  0.0000
      3.9100	 14.9155	 14.9155	 -6.2196	  0.0000
      3.9200	 14.9381	 14.9381	 -6.2196	  0.0000
      3.9300	 14.9628	 14.9628	 -6.2196	  0.0000
      3.9400	 14.9898	 14.9898	 -6.2196	  0.0000
      3.9500	 15.0193	 15.0193	 -6.2196	  0.0000
      3.9600	 15.0513	 15.0513	 -6.2196	  0.0000
      3.9700	 15.0861	 15.0861	 -6.2196	  0.0000
      3.9800	 15.1238	 15.1239	 -6.2196	  0.0000
      3.9900	 15.1646	 15.1646	 -6.2196	  0.0000
      4.0000	 15.2084	 15.2084	 -6.2196	  0.0000
      4.0100	 15.2555	 15.2555	 -6.2196	  0.0000
      4.0200	 15.3057	 15.3058	 -6.2196	  0.0000
      4.0300	 15.3591	 15.3591	 -6.2196	  0.0000
      4.0400	 15.4154	 15.4154	 -6.2196	  0.0000
      4.0500	 15.4744	 15.4744	 -6.2196	  0.0000
      4.0600	 15.5354	 15.5354	 -6.2196	  0.0000
      4.0700	 15.5977	 15.5978	 -6.2196	  0.0000
      4.0800	 15.6604	 15.6605	 -6.2196	  0.0000
      4.0900	 15.7222	 15.7222	 -6.2196	  0.0000
      4.1000	 15.7812	 15.7813	 -6.2196	  0.0000
      4.1100	 15.8358	 15.8358	 -6.2196	  0.0000
      4.1200	 15.8836	 15.8836	 -6.2196	  0.0000
      4.1300	 15.9225	 15.9225	 -6.2196	  0.0000
      4.1400	 15.9504	 15.9505	 -6.2196	  0.0000
      4.1500	 15.9658	 15.9658	 -6.2196	  0.0000
      4.1600	 15.9675	 15.9675	 -6.2196	  0.0000
      4.1700	 15.9554	 15.9554	 -6.2196	  0.0000
      4.1800	 15.9301	 15.9301	 -6.2196	  0.0000
      4.1900	 15.8930	 15.8930	 -6.2196	  0.0000
      4.2000	 15.8459	 15.8459	 -6.2196	  0.0000
      4.2100	 15.7909	 15.7909	 -6.2196	  0.0000
      4.2200	 15.7303	 15.7303	 -6.2196	  0.0000
      4.2300	 15.6660	 15.6660	 -6.2196	  0.0000
      4.2400	 15.5997	 15.5997	 -6.2196	  0.0000
      4.2500	 15.5329	 15.5329	 -6.2196	  0.0000
      4.2600	 15.4668	 15.4668	 -6.2196	  0.0000
      4.2700	 15.4020	 15.4020	 -6.2196	  0.0000
      4.2800	 15.3394	 15.3394	 -6.2196	  0.0000
      4.2900	 15.2792	 15.2792	 -6.2196	  0.0000
      4.3000	 15.2218	 15.2218	 -6.2196	  0.0000
      4.3100	 15.1672	 15.1672	 -6.2196	  0.0000
      4.3200	 15.1155	 15.1155	 -6.2196	  0.0000
      4.3300	 15.0667	 15.0667	 -6.2196	  0.0000
      4.3400	 15.0207	 15.0207	 -6.2196	  0.0000
      4.3500	 14.9774	 14.9774	 -6.2196	  0.0000
      4.3600	 14.9367	 14.9367	 -6.2196	  0.0000
      4.3700	 14.8984	 14.8984	 -6.2196	  0.0000
      4.3800	 14.8625	 14.8625	 -6.2196	  0.0000
      4.3900	 14.8287	 14.8287	 -6.2196	  0.0000
      4.4000	 14.7970	 14.7970	 -6.2196	  0.0000
      4.4100	 14.7672	 14.7672	 -6.2196	  0.0000
      4.4200	 14.7392	 14.7392	 -6.2196	  0.0000
      4.4300	 14.7128	 14.7128	 -6.2196	  0.0000
      4.4400	 14.6880	 14.6880	 -6.2196	  0.0000
      4.4500	 14.6646	 14.6646	 -6.2196	  0.0000
      4.4600	 14.6426	 14.6426	 -6.2196	  0.0000
      4.4700	 14.6218	 14.6218	 -6.2196	  0.0000
      4.4800	 14.6021	 14.6021	 -6.2196	  0.0000
      4.4900	 14.5836	 14.5836	 -6.2196	  0.0000
      4.5000	 14.5660	 14.5660	 -6.2196	  0.0000
      4.5100	 14.5494	 14.5494	 -6.2196	  0.0000
      4.5200	 14.5337	 14.5337	 -6.2196	  0.0000
      4.5300	 14.5188	 14.5188	 -6.2196	  0.0000
      4.5400	 14.5046	 14.5046	 -6.2196	  0.0000
      4.5500	 14.4911	 14.4912	 -6.2196	  0.0000
      4.5600	 14.4784	 14.4784	 -6.2196	  0.0000
      4.5700	 14.4662	 14.4662	 -6.2196	  0.0000
      4.5800	 14.4547	 14.4547	 -6.2196	  0.0000
      4.5900	 14.4437	 14.4437	 -6.2196	  0.0000
      4.6000	 14.4332	 14.4332	 -6.2196	  0.0000
      4.6100	 14.4232	 14.4232	 -6.2196	  0.0000
      4.6200	 14.4136	 14.4136	 -6.2196	  0.0000
      4.6300	 14.4045	 14.4045	 -6.2196	  0.0000
      4.6400	 14.3958	 14.3958	 -6.2196	  0.0000
      4.6500	 14.3875	 14.3875	 -6.2196	  0.0000
      4.6600	 14.3795	 14.3795	 -6.2196	  0.0000
      4.6700	 14.3719	 14.3719	 -6.2196	  0.0000
      4.6800	 14.3646	 14.3646	 -6.2196	  0.0000
      4.6900	 14.3576	 14.3576	 -6.2196	  0.0000
      4.7000	 14.3510	 14.3510	 -6.2196	  0.0000
      4.7100	 14.3446	 14.3446	 -6.2196	  0.0000
      4.7200	 14.3385	 14.3385	 -6.2196	  0.0000
      4.7300	 14.3326	 14.3326	 -6.2196	  0.0000
      4.7400	 14.3270	 14.3270	 -6.2196	  0.0000
      4.7500	 14.3216	 14.3216	 -6.2196	  0.0000
      4.7600	 14.3164	 14.3164	 -6.2196	  0.0000
      4.7700	 14.3114	 14.3114	 -6.2196	  0.0000
      4.7800	 14.3067	 14.3067	 -6.2196	  0.0000
      4.7900	 14.3021	 14.3021	 -6.2196	  0.0000
      4.8000	 14.2978	 14.2978	 -6.2196	  0.0000
      4.8100	 14.2936	 14.2936	 -6.2196	  0.0000
      4.8200	 14.2896	 14.2896	 -6.2196	  0.0000
      4.8300	 14.2857	 14.2857	 -6.2196	  0.0000
      4.8400	 14.2821	 14.2821	 -6.2196	  0.0000
      4.8500	 14.2785	 14.2785	 -6.2196	  0.0000
      4.8600	 14.2752	 14.2752	 -6.2196	  0.0000
      4.8700	 14.2719	 14.2719	 -6.2196	  0.0000
      4.8800	 14.2689	 14.2689	 -6.2196	  0.0000
      4.8900	 14.2659	 14.2659	 -6.2196	  0.0000
      4.9000	 14.2631	 14.2631	 -6.2196	  0.0000
      4.9100	 14.2604	 14.2604	 -6.2196	  0.0000
      4.9200	 14.2579	 14.2579	 -6.2196	  0.0000
      4.9300	 14.2555	 14.2555	 -6.2196	  0.0000
      4.9400	 14.2531	 14.2531	 -6.2196	  0.0000
      4.9500	 14.2510	 14.2510	 -6.2196	  0.0000
      4.9600	 14.2489	 14.2489	 -6.2196	  0.0000
      4.9700	 14.2469	 14.2469	 -6.2196	  0.0000
      4.9800	 14.2451	 14.2451	 -6.2196	  0.0000
      4.9900	 14.2433	 14.2433	 -6.2196	  0.0000
      5.0000	 14.2417	 14.2417	 -6.2196	  0.0000
